##########################
#
# SN II 199ca spectrum
#
##########################
#
# Reference : Gutierrez et al. 2017, ApJ, 850, 89
# Telescope : NTT
# Instrument: EMMI
# JD        : 2451305.546
#
#  wavelength    flux
#   (angtrom)   
 3258.354    1.3089610e-16
 3261.006    1.6098690e-16
 3263.659    1.4050370e-16
 3266.311    8.4307510e-17
 3268.964    1.0943480e-16
 3271.616    1.1283995e-16
 3274.269    9.1371790e-17
 3276.921    1.2749780e-16
 3279.573    1.1624510e-16
 3282.226    1.1808770e-16
 3284.878    1.3439940e-16
 3287.531    1.2481290e-16
 3290.183    1.0437491e-16
 3292.836    1.0708450e-16
 3295.488    8.0413130e-17
 3298.141    9.0662110e-17
 3300.793    1.0979410e-16
 3303.446    1.2238780e-16
 3306.098    1.0775970e-16
 3308.750    9.0385620e-17
 3311.403    1.1874720e-16
 3314.055    9.9072660e-17
 3316.708    1.0949390e-16
 3319.360    1.1412055e-16
 3322.013    1.1180722e-16
 3324.665    1.3369640e-16
 3327.318    1.1296389e-16
 3329.970    1.0291490e-16
 3332.622    1.3685700e-16
 3335.275    1.4444590e-16
 3337.927    1.3038585e-16
 3340.580    1.4001760e-16
 3343.232    1.2391470e-16
 3345.885    1.2043010e-16
 3348.537    1.0568140e-16
 3351.190    1.0000310e-16
 3353.842    1.1802450e-16
 3356.494    1.1729120e-16
 3359.147    1.4423260e-16
 3361.799    1.5460480e-16
 3364.452    1.2417150e-16
 3367.104    1.2258760e-16
 3369.757    1.3543850e-16
 3372.409    1.4015700e-16
 3375.062    1.3627500e-16
 3377.714    1.4319800e-16
 3380.367    1.2943150e-16
 3383.019    1.2100760e-16
 3385.671    1.3944320e-16
 3388.324    1.6632390e-16
 3390.976    1.5688190e-16
 3393.629    1.4965480e-16
 3396.281    1.5440990e-16
 3398.934    1.4256720e-16
 3401.586    1.3407080e-16
 3404.239    1.3256570e-16
 3406.891    1.3024020e-16
 3409.543    1.2520510e-16
 3412.196    1.4083660e-16
 3414.848    1.5117880e-16
 3417.501    1.3599610e-16
 3420.153    1.1213620e-16
 3422.806    1.3572140e-16
 3425.458    1.4393880e-16
 3428.111    1.4573860e-16
 3430.763    1.4438875e-16
 3433.416    1.4483870e-16
 3436.068    1.5909400e-16
 3438.720    1.2693960e-16
 3441.373    1.0864760e-16
 3444.025    1.2858770e-16
 3446.678    1.2486940e-16
 3449.330    1.1610790e-16
 3451.983    1.3139100e-16
 3454.635    1.5545170e-16
 3457.288    1.5223460e-16
 3459.940    1.4005500e-16
 3462.592    1.3632590e-16
 3465.245    1.3465690e-16
 3467.897    1.3854950e-16
 3470.550    1.4510260e-16
 3473.202    1.5187960e-16
 3475.855    1.5823170e-16
 3478.507    1.6193400e-16
 3481.160    1.6586680e-16
 3483.812    1.7003870e-16
 3486.464    1.7268150e-16
 3489.117    1.7563560e-16
 3491.769    1.8332160e-16
 3494.422    1.8293880e-16
 3497.074    1.6855650e-16
 3499.727    1.6834130e-16
 3502.379    1.7982850e-16
 3505.032    1.8489800e-16
 3507.684    1.8084430e-16
 3510.337    1.9585640e-16
 3512.989    1.9776020e-16
 3515.641    1.9221620e-16
 3518.294    1.9396600e-16
 3520.946    1.9704670e-16
 3523.599    1.9468180e-16
 3526.251    1.9512700e-16
 3528.904    1.9598940e-16
 3531.556    1.8253070e-16
 3534.209    1.8059310e-16
 3536.861    1.8968410e-16
 3539.513    1.9444290e-16
 3542.166    1.8578220e-16
 3544.818    1.8639050e-16
 3547.471    1.8756600e-16
 3550.123    1.8818980e-16
 3552.776    1.9654600e-16
 3555.428    2.0133340e-16
 3558.081    1.9764110e-16
 3560.733    1.9273420e-16
 3563.386    1.9564190e-16
 3566.038    2.0045320e-16
 3568.690    2.0140730e-16
 3571.343    2.0799690e-16
 3573.995    2.2390320e-16
 3576.648    2.2405160e-16
 3579.300    2.1990180e-16
 3581.953    2.1027050e-16
 3584.605    1.9866820e-16
 3587.258    2.0821760e-16
 3589.910    2.2626890e-16
 3592.562    2.3305370e-16
 3595.215    2.2765690e-16
 3597.867    2.3221210e-16
 3600.520    2.3414280e-16
 3603.172    2.4099260e-16
 3605.825    2.5236950e-16
 3608.477    2.5259870e-16
 3611.130    2.5262840e-16
 3613.782    2.4825140e-16
 3616.434    2.3980570e-16
 3619.087    2.3857400e-16
 3621.739    2.5503580e-16
 3624.392    2.6783920e-16
 3627.044    2.6369090e-16
 3629.697    2.5293450e-16
 3632.349    2.5969470e-16
 3635.002    2.6169550e-16
 3637.654    2.5582990e-16
 3640.307    2.5757500e-16
 3642.959    2.6621030e-16
 3645.611    2.6114410e-16
 3648.264    2.5334670e-16
 3650.916    2.5571770e-16
 3653.569    2.4139970e-16
 3656.221    2.2824380e-16
 3658.874    2.3811600e-16
 3661.526    2.6521010e-16
 3664.179    2.6867580e-16
 3666.831    2.6003630e-16
 3669.483    2.4906560e-16
 3672.136    2.4064750e-16
 3674.788    2.3669240e-16
 3677.441    2.4028400e-16
 3680.093    2.4041090e-16
 3682.746    2.2980240e-16
 3685.398    2.1706890e-16
 3688.051    2.2638440e-16
 3690.703    2.3788620e-16
 3693.356    2.3852800e-16
 3696.008    2.3871410e-16
 3698.660    2.4046400e-16
 3701.313    2.4190060e-16
 3703.965    2.4867360e-16
 3706.618    2.6460590e-16
 3709.270    2.6927500e-16
 3711.923    2.6878040e-16
 3714.575    2.7008920e-16
 3717.228    2.7761650e-16
 3719.880    2.9919830e-16
 3722.532    3.2233590e-16
 3725.185    3.3965000e-16
 3727.837    3.5273280e-16
 3730.490    3.6666060e-16
 3733.142    3.8080090e-16
 3735.795    3.8928340e-16
 3738.447    3.9126420e-16
 3741.100    3.9636880e-16
 3743.752    4.0140000e-16
 3746.404    4.0543530e-16
 3749.057    4.0874540e-16
 3751.709    4.1149520e-16
 3754.362    4.1681730e-16
 3757.014    4.2333230e-16
 3759.667    4.2552020e-16
 3762.319    4.2008800e-16
 3764.972    4.2059160e-16
 3767.624    4.2761130e-16
 3770.277    4.3533920e-16
 3772.929    4.3902110e-16
 3775.581    4.3984000e-16
 3778.234    4.4614800e-16
 3780.886    4.5798260e-16
 3783.539    4.6668470e-16
 3786.191    4.6631510e-16
 3788.844    4.7447820e-16
 3791.496    4.8443250e-16
 3794.149    4.7793590e-16
 3796.801    4.6364850e-16
 3799.453    4.6350840e-16
 3802.106    4.6837830e-16
 3804.758    4.6468090e-16
 3807.411    4.7114080e-16
 3810.063    4.6975920e-16
 3812.716    4.5446900e-16
 3815.368    4.3754600e-16
 3818.021    4.3902490e-16
 3820.673    4.4084120e-16
 3823.326    4.3450460e-16
 3825.978    4.2582690e-16
 3828.630    4.2615870e-16
 3831.283    4.2693350e-16
 3833.935    4.1447180e-16
 3836.588    3.9503640e-16
 3839.240    3.9024050e-16
 3841.893    3.8467700e-16
 3844.545    3.7407840e-16
 3847.198    3.6426110e-16
 3849.850    3.6061640e-16
 3852.502    3.4990500e-16
 3855.155    3.4702360e-16
 3857.807    3.5636420e-16
 3860.460    3.6420960e-16
 3863.112    3.5680110e-16
 3865.765    3.4118610e-16
 3868.417    3.3734130e-16
 3871.070    3.5114270e-16
 3873.722    3.5062630e-16
 3876.374    3.4841430e-16
 3879.027    3.4570670e-16
 3881.679    3.4000270e-16
 3884.332    3.4333170e-16
 3886.984    3.5167260e-16
 3889.637    3.5172000e-16
 3892.289    3.4602260e-16
 3894.942    3.6098250e-16
 3897.594    3.7466770e-16
 3900.247    3.7756090e-16
 3902.899    3.7310330e-16
 3905.551    3.7023460e-16
 3908.204    3.7723950e-16
 3910.856    3.8218770e-16
 3913.509    3.7811900e-16
 3916.161    3.7623010e-16
 3918.814    3.9497380e-16
 3921.466    4.1623590e-16
 3924.119    4.2115430e-16
 3926.771    4.1168330e-16
 3929.423    4.0857370e-16
 3932.076    4.1928590e-16
 3934.728    4.3838800e-16
 3937.381    4.5388750e-16
 3940.033    4.5729640e-16
 3942.686    4.6325030e-16
 3945.338    4.7634170e-16
 3947.991    4.9055160e-16
 3950.643    5.0416330e-16
 3953.296    5.1333590e-16
 3955.948    5.2502380e-16
 3958.600    5.4145110e-16
 3961.253    5.4618720e-16
 3963.905    5.4714560e-16
 3966.558    5.5531990e-16
 3969.210    5.7442470e-16
 3971.863    5.9726230e-16
 3974.515    6.2570920e-16
 3977.168    6.4059130e-16
 3979.820    6.4001050e-16
 3982.472    6.5147270e-16
 3985.125    6.6992110e-16
 3987.777    6.7986900e-16
 3990.430    6.8199860e-16
 3993.082    6.9414590e-16
 3995.735    7.1336560e-16
 3998.387    7.1858620e-16
 4001.040    7.1172040e-16
 4003.692    7.1633040e-16
 4006.344    7.3266540e-16
 4008.997    7.4124380e-16
 4011.649    7.4482350e-16
 4014.302    7.5805010e-16
 4016.954    7.6453840e-16
 4019.607    7.7186490e-16
 4022.259    7.8276960e-16
 4024.912    7.9216920e-16
 4027.564    7.9528670e-16
 4030.217    7.8762010e-16
 4032.869    7.7270040e-16
 4035.521    7.6008760e-16
 4038.174    7.5834260e-16
 4040.826    7.4859280e-16
 4043.479    7.3842970e-16
 4046.131    7.3659380e-16
 4048.784    7.3012860e-16
 4051.436    7.2259960e-16
 4054.089    7.1726650e-16
 4056.741    7.1380640e-16
 4059.393    7.0931320e-16
 4062.046    7.0770630e-16
 4064.698    7.0799190e-16
 4067.351    7.0815130e-16
 4070.003    7.0564560e-16
 4072.656    6.8964660e-16
 4075.308    6.8151050e-16
 4077.961    6.8336000e-16
 4080.613    6.7673130e-16
 4083.266    6.7192200e-16
 4085.918    6.6844860e-16
 4088.570    6.5794040e-16
 4091.223    6.3776620e-16
 4093.875    6.2727820e-16
 4096.528    6.2825300e-16
 4099.180    6.2710630e-16
 4101.833    6.1449200e-16
 4104.485    6.0568320e-16
 4107.138    6.0241080e-16
 4109.790    6.0531110e-16
 4112.442    6.1175890e-16
 4115.095    6.1450000e-16
 4117.747    6.1492640e-16
 4120.400    6.2346810e-16
 4123.052    6.3984730e-16
 4125.705    6.4636530e-16
 4128.357    6.6117430e-16
 4131.010    6.7085630e-16
 4133.662    6.6923650e-16
 4136.314    6.7539830e-16
 4138.967    6.8392730e-16
 4141.619    6.8618280e-16
 4144.272    6.8544100e-16
 4146.924    6.9158420e-16
 4149.577    6.8471580e-16
 4152.229    6.9162120e-16
 4154.882    6.9179780e-16
 4157.534    6.7359965e-16
 4160.187    6.6160195e-16
 4162.839    6.6121687e-16
 4165.491    6.6248350e-16
 4168.144    6.6072040e-16
 4170.796    6.6083180e-16
 4173.449    6.5809840e-16
 4176.101    6.5008380e-16
 4178.754    6.4456660e-16
 4181.406    6.4826600e-16
 4184.059    6.4499720e-16
 4186.711    6.3407390e-16
 4189.363    6.2918980e-16
 4192.016    6.4284230e-16
 4194.668    6.5318340e-16
 4197.321    6.5358900e-16
 4199.973    6.4364410e-16
 4202.626    6.1975330e-16
 4205.278    6.0389320e-16
 4207.931    5.9058130e-16
 4210.583    5.7252630e-16
 4213.236    5.5716230e-16
 4215.888    5.4479540e-16
 4218.540    5.3611510e-16
 4221.193    5.2565570e-16
 4223.845    5.0625190e-16
 4226.498    4.8750210e-16
 4229.150    4.7315510e-16
 4231.803    4.6195120e-16
 4234.455    4.5176740e-16
 4237.108    4.4555210e-16
 4239.760    4.4503310e-16
 4242.412    4.4357790e-16
 4245.065    4.3394560e-16
 4247.717    4.2250690e-16
 4250.370    4.2666390e-16
 4253.022    4.3784000e-16
 4255.675    4.3783590e-16
 4258.327    4.3179680e-16
 4260.980    4.3487340e-16
 4263.632    4.4532370e-16
 4266.284    4.5225710e-16
 4268.937    4.5214250e-16
 4271.589    4.5609090e-16
 4274.242    4.6260370e-16
 4276.894    4.6783370e-16
 4279.547    4.7587720e-16
 4282.199    4.8832040e-16
 4284.852    5.0468690e-16
 4287.504    5.1998420e-16
 4290.157    5.2729760e-16
 4292.809    5.2844580e-16
 4295.461    5.3164880e-16
 4298.114    5.3532780e-16
 4300.766    5.3231570e-16
 4303.419    5.4221160e-16
 4306.071    5.4808410e-16
 4308.724    5.4360200e-16
 4311.376    5.4053310e-16
 4314.029    5.3859590e-16
 4316.681    5.4103090e-16
 4319.333    5.4559690e-16
 4321.986    5.4747760e-16
 4324.638    5.4770280e-16
 4327.291    5.4739060e-16
 4329.943    5.4529590e-16
 4332.596    5.4304150e-16
 4335.248    5.4999860e-16
 4337.901    5.5509690e-16
 4340.553    5.6407070e-16
 4343.206    5.8056760e-16
 4345.858    5.8690650e-16
 4348.510    5.8954880e-16
 4351.163    5.9437220e-16
 4353.815    5.9733290e-16
 4356.468    5.8908000e-16
 4359.120    6.0510100e-16
 4361.773    6.2302560e-16
 4364.425    6.2438170e-16
 4367.078    6.2790140e-16
 4369.730    6.3650860e-16
 4372.382    6.3305490e-16
 4375.035    6.2281440e-16
 4377.687    6.2920040e-16
 4380.340    6.2598520e-16
 4382.992    6.2548520e-16
 4385.645    6.2974700e-16
 4388.297    6.2791020e-16
 4390.950    6.3314260e-16
 4393.602    6.3438910e-16
 4396.254    6.3199880e-16
 4398.907    6.3709860e-16
 4401.559    6.5154070e-16
 4404.212    6.4456060e-16
 4406.864    6.2759890e-16
 4409.517    6.2727560e-16
 4412.169    6.3124000e-16
 4414.822    6.3207060e-16
 4417.474    6.2838740e-16
 4420.127    6.2485600e-16
 4422.779    6.2694960e-16
 4425.431    6.1910790e-16
 4428.084    6.0997720e-16
 4430.736    6.0717140e-16
 4433.389    5.9977650e-16
 4436.041    5.9609370e-16
 4438.694    5.9311060e-16
 4441.346    5.9018680e-16
 4443.999    5.9220230e-16
 4446.651    5.8639900e-16
 4449.303    5.7195100e-16
 4451.956    5.5976110e-16
 4454.608    5.5812470e-16
 4457.261    5.4476810e-16
 4459.913    5.3520570e-16
 4462.566    5.3547500e-16
 4465.218    5.3257910e-16
 4467.871    5.1866810e-16
 4470.523    5.1426950e-16
 4473.176    5.1660420e-16
 4475.828    5.0976830e-16
 4478.480    5.0469920e-16
 4481.133    5.0300160e-16
 4483.785    4.9836800e-16
 4486.438    4.9117490e-16
 4489.090    5.0005420e-16
 4491.743    5.0812300e-16
 4494.395    5.0685470e-16
 4497.048    5.0286100e-16
 4499.700    5.1030600e-16
 4502.352    5.1422460e-16
 4505.005    5.1873880e-16
 4507.657    5.3112110e-16
 4510.310    5.4765340e-16
 4512.962    5.7229320e-16
 4515.615    5.9579500e-16
 4518.267    6.1100390e-16
 4520.920    6.2128120e-16
 4523.572    6.2960520e-16
 4526.224    6.5008910e-16
 4528.877    6.8474740e-16
 4531.529    7.1779190e-16
 4534.182    7.3142080e-16
 4536.834    7.4962320e-16
 4539.487    7.7859080e-16
 4542.139    7.9961570e-16
 4544.792    8.0740320e-16
 4547.444    8.0434590e-16
 4550.097    8.0234650e-16
 4552.749    8.1057500e-16
 4555.401    8.2094670e-16
 4558.054    8.2658920e-16
 4560.706    8.3293310e-16
 4563.359    8.4741130e-16
 4566.011    8.6463230e-16
 4568.664    8.7337310e-16
 4571.316    8.7454070e-16
 4573.969    8.8124030e-16
 4576.621    9.0693420e-16
 4579.273    9.2334260e-16
 4581.926    9.1998010e-16
 4584.578    9.0645370e-16
 4587.231    9.0146050e-16
 4589.883    9.1917760e-16
 4592.536    9.3418220e-16
 4595.188    9.3913780e-16
 4597.841    9.5887500e-16
 4600.493    9.7249260e-16
 4603.146    9.8916040e-16
 4605.798    1.0089610e-15
 4608.450    1.0223000e-15
 4611.103    1.0572090e-15
 4613.755    1.0759485e-15
 4616.408    1.0853182e-15
 4619.060    1.0946880e-15
 4621.713    1.0977660e-15
 4624.365    1.0980860e-15
 4627.018    1.0893060e-15
 4629.670    1.0840870e-15
 4632.322    1.1089410e-15
 4634.975    1.1212920e-15
 4637.627    1.1180980e-15
 4640.280    1.1199650e-15
 4642.932    1.1222530e-15
 4645.585    1.1257100e-15
 4648.237    1.1209450e-15
 4650.890    1.1074540e-15
 4653.542    1.1037410e-15
 4656.195    1.0924810e-15
 4658.847    1.0859720e-15
 4661.499    1.0907630e-15
 4664.152    1.0866180e-15
 4666.804    1.0718710e-15
 4669.457    1.0610970e-15
 4672.109    1.0555540e-15
 4674.762    1.0398250e-15
 4677.414    1.0275160e-15
 4680.067    1.0214250e-15
 4682.719    1.0175620e-15
 4685.371    1.0096940e-15
 4688.024    9.9191810e-16
 4690.676    9.8243870e-16
 4693.329    9.7822890e-16
 4695.981    9.6296680e-16
 4698.634    9.5209820e-16
 4701.286    9.3982990e-16
 4703.939    9.2995180e-16
 4706.591    9.2760290e-16
 4709.243    9.1857140e-16
 4711.896    9.0298690e-16
 4714.548    8.9633120e-16
 4717.201    9.0363040e-16
 4719.853    8.9851930e-16
 4722.506    8.8429630e-16
 4725.158    8.7199870e-16
 4727.811    8.6545130e-16
 4730.463    8.5464940e-16
 4733.116    8.4343220e-16
 4735.768    8.2885740e-16
 4738.420    8.2091050e-16
 4741.073    8.3766160e-16
 4743.725    8.2267660e-16
 4746.378    7.9825040e-16
 4749.030    7.8144160e-16
 4751.683    7.5371200e-16
 4754.335    7.5183210e-16
 4756.988    7.5765640e-16
 4759.640    7.5132200e-16
 4762.292    7.3427710e-16
 4764.945    7.1034570e-16
 4767.597    6.9817820e-16
 4770.250    6.9808970e-16
 4772.902    6.9389520e-16
 4775.555    6.7981400e-16
 4778.207    6.7560450e-16
 4780.860    6.7785640e-16
 4783.512    6.7320110e-16
 4786.165    6.7500570e-16
 4788.817    6.7817930e-16
 4791.469    6.7486280e-16
 4794.122    6.6786160e-16
 4796.774    6.9330760e-16
 4799.427    7.0843590e-16
 4802.079    7.3868140e-16
 4804.732    7.5088940e-16
 4807.384    7.7071630e-16
 4810.037    8.0078670e-16
 4812.689    8.3298380e-16
 4815.341    8.6002870e-16
 4817.994    8.8257370e-16
 4820.646    8.9937150e-16
 4823.299    9.0870310e-16
 4825.951    9.1689270e-16
 4828.604    9.3323620e-16
 4831.256    9.4408570e-16
 4833.909    9.4478930e-16
 4836.561    9.4431130e-16
 4839.213    9.5281140e-16
 4841.866    9.5529990e-16
 4844.518    9.5246640e-16
 4847.171    9.5279190e-16
 4849.823    9.5959660e-16
 4852.476    9.5811410e-16
 4855.128    9.7493260e-16
 4857.781    1.0071000e-15
 4860.433    1.0329920e-15
 4863.086    1.0555730e-15
 4865.738    1.0662680e-15
 4868.390    1.0782600e-15
 4871.043    1.1023200e-15
 4873.695    1.1202560e-15
 4876.348    1.1388060e-15
 4879.000    1.1627570e-15
 4881.653    1.1845710e-15
 4884.305    1.1882350e-15
 4886.958    1.2072490e-15
 4889.610    1.2223960e-15
 4892.262    1.2200360e-15
 4894.915    1.2246950e-15
 4897.567    1.2265170e-15
 4900.220    1.2329380e-15
 4902.872    1.2367950e-15
 4905.525    1.2192240e-15
 4908.177    1.2096800e-15
 4910.830    1.2055300e-15
 4913.482    1.1963970e-15
 4916.135    1.1788380e-15
 4918.787    1.1562230e-15
 4921.439    1.1335200e-15
 4924.092    1.1146990e-15
 4926.744    1.0996380e-15
 4929.397    1.0823850e-15
 4932.049    1.0592340e-15
 4934.702    1.0354850e-15
 4937.354    1.0156500e-15
 4940.007    9.9065310e-16
 4942.659    9.7840460e-16
 4945.311    9.7072020e-16
 4947.964    9.5855760e-16
 4950.616    9.6334920e-16
 4953.269    9.7731470e-16
 4955.921    9.8764060e-16
 4958.574    9.9551260e-16
 4961.226    1.0186000e-15
 4963.879    1.0296710e-15
 4966.531    1.0335920e-15
 4969.183    1.0475510e-15
 4971.836    1.0617110e-15
 4974.488    1.0600470e-15
 4977.141    1.0621950e-15
 4979.793    1.0827000e-15
 4982.446    1.0923380e-15
 4985.098    1.1130780e-15
 4987.751    1.1026890e-15
 4990.403    1.0764440e-15
 4993.056    1.0884380e-15
 4995.708    1.1012980e-15
 4998.360    1.0812440e-15
 5001.013    1.0785300e-15
 5003.665    1.0995410e-15
 5006.318    1.1109490e-15
 5008.970    1.1168880e-15
 5011.623    1.1203570e-15
 5014.275    1.1284910e-15
 5016.928    1.1367960e-15
 5019.580    1.1317690e-15
 5022.232    1.1273260e-15
 5024.885    1.1173790e-15
 5027.537    1.1057490e-15
 5030.190    1.1114780e-15
 5032.842    1.1066070e-15
 5035.495    1.0857220e-15
 5038.147    1.0690610e-15
 5040.800    1.0689290e-15
 5043.452    1.0635320e-15
 5046.105    1.0252910e-15
 5048.757    1.0036460e-15
 5051.409    9.9054910e-16
 5054.062    9.7514650e-16
 5056.714    9.6600420e-16
 5059.367    9.5626860e-16
 5062.019    9.2158640e-16
 5064.672    9.0329180e-16
 5067.324    9.1561910e-16
 5069.977    9.0894300e-16
 5072.629    8.7263050e-16
 5075.281    8.4630190e-16
 5077.934    8.3488250e-16
 5080.586    8.3341440e-16
 5083.239    8.1603440e-16
 5085.891    7.6062880e-16
 5088.544    7.4967140e-16
 5091.196    7.7206500e-16
 5093.849    7.6191430e-16
 5096.501    7.1280180e-16
 5099.153    7.1944750e-16
 5101.806    7.0698770e-16
 5104.458    6.9763880e-16
 5107.111    7.1160420e-16
 5109.763    6.9518370e-16
 5112.416    6.9932520e-16
 5115.068    6.8369210e-16
 5117.721    6.9836290e-16
 5120.373    7.0968960e-16
 5123.026    7.2453230e-16
 5125.678    7.4549250e-16
 5128.330    7.3729350e-16
 5130.983    7.5631780e-16
 5133.635    7.5787880e-16
 5136.288    7.7466570e-16
 5138.940    7.7798615e-16
 5141.593    7.8130660e-16
 5144.245    8.0583440e-16
 5146.898    8.0931280e-16
 5149.550    7.9357050e-16
 5152.202    8.0757360e-16
 5154.855    8.1174990e-16
 5157.507    8.4704090e-16
 5160.160    8.1418700e-16
 5162.812    8.2637490e-16
 5165.465    8.6695390e-16
 5168.117    8.5674910e-16
 5170.770    8.8738535e-16
 5173.422    8.8766098e-16
 5176.075    9.0781680e-16
 5178.727    8.8752316e-16
 5181.379    8.8793660e-16
 5184.032    8.7694080e-16
 5186.684    8.7767330e-16
 5189.337    8.7878660e-16
 5191.989    9.3262460e-16
 5194.642    9.1008820e-16
 5197.294    9.1466540e-16
 5199.947    9.0551100e-16
 5202.599    9.2086060e-16
 5205.251    9.0890110e-16
 5207.904    9.2115800e-16
 5210.556    9.4993430e-16
 5213.209    9.4510500e-16
 5215.861    9.5312360e-16
 5218.514    9.5631290e-16
 5221.166    9.5795750e-16
 5223.819    9.5960210e-16
 5226.471    9.6124670e-16
 5229.123    9.6289130e-16
 5231.776    9.4304100e-16
 5234.428    9.7365220e-16
 5237.081    9.4331300e-16
 5239.733    9.4358500e-16
 5242.386    9.3224725e-16
 5245.038    9.1586750e-16
 5247.691    9.2090950e-16
 5250.343    9.1902890e-16
 5252.996    9.3317870e-16
 5255.648    9.2806380e-16
 5258.300    9.4763700e-16
 5260.953    9.3551940e-16
 5263.605    9.2382170e-16
 5266.258    9.4974910e-16
 5268.910    9.5539860e-16
 5271.563    9.7466490e-16
 5274.215    1.0008680e-15
 5276.868    9.8826310e-16
 5279.520    9.7021960e-16
 5282.172    9.7349190e-16
 5284.825    1.0143630e-15
 5287.477    9.9743420e-16
 5290.130    1.0119240e-15
 5292.782    1.0298740e-15
 5295.435    1.0384470e-15
 5298.087    1.0507500e-15
 5300.740    1.0537640e-15
 5303.392    1.0518150e-15
 5306.045    1.0588680e-15
 5308.697    1.0606200e-15
 5311.349    1.0613270e-15
 5314.002    1.0620340e-15
 5316.654    1.0621725e-15
 5319.307    1.0734915e-15
 5321.959    1.0846720e-15
 5324.612    1.0623110e-15
 5327.264    1.0887960e-15
 5329.917    1.1053600e-15
 5332.569    1.0798770e-15
 5335.221    1.0831210e-15
 5337.874    1.0831560e-15
 5340.526    1.0686770e-15
 5343.179    1.0591780e-15
 5345.831    1.0772985e-15
 5348.484    1.0714410e-15
 5351.136    1.0896010e-15
 5353.789    1.0843010e-15
 5356.441    1.0763830e-15
 5359.093    1.0877300e-15
 5361.746    1.1186080e-15
 5364.398    1.1191830e-15
 5367.051    1.1173990e-15
 5369.703    1.1472530e-15
 5372.356    1.1390325e-15
 5375.008    1.1566440e-15
 5377.661    1.1342380e-15
 5380.313    1.1438270e-15
 5382.966    1.1565870e-15
 5385.618    1.1067280e-15
 5388.270    1.1282950e-15
 5390.923    1.1392400e-15
 5393.575    1.1151340e-15
 5396.228    1.1018910e-15
 5398.880    1.0860060e-15
 5401.533    1.0707420e-15
 5404.185    1.0907940e-15
 5406.838    1.0845110e-15
 5409.490    1.0720420e-15
 5412.142    1.0697615e-15
 5414.795    1.0343140e-15
 5417.447    1.0674810e-15
 5420.100    1.0634230e-15
 5422.752    1.0446770e-15
 5425.405    1.0297120e-15
 5428.057    1.0313850e-15
 5430.710    1.0397790e-15
 5433.362    1.0078780e-15
 5436.015    9.7826290e-16
 5438.667    9.8966190e-16
 5441.319    9.9051070e-16
 5443.972    9.7632320e-16
 5446.624    9.8939360e-16
 5449.277    9.8474000e-16
 5451.929    1.0024320e-15
 5454.582    9.9696500e-16
 5457.234    9.8329830e-16
 5459.887    1.0228030e-15
 5462.539    1.0231080e-15
 5465.191    1.0232470e-15
 5467.844    1.0501500e-15
 5470.496    1.0419130e-15
 5473.149    1.0585330e-15
 5475.801    1.0877370e-15
 5478.454    1.0948690e-15
 5481.106    1.0760170e-15
 5483.759    1.0908310e-15
 5486.411    1.1179510e-15
 5489.063    1.1218920e-15
 5491.716    1.1184160e-15
 5494.368    1.1058540e-15
 5497.021    1.0909160e-15
 5499.673    1.0863890e-15
 5502.326    1.0878040e-15
 5504.978    1.1043420e-15
 5507.631    1.1179600e-15
 5510.283    1.1103500e-15
 5512.936    1.1092230e-15
 5515.588    1.1141550e-15
 5518.240    1.1122525e-15
 5520.893    1.1257460e-15
 5523.545    1.1272010e-15
 5526.198    1.0893330e-15
 5528.850    1.1005060e-15
 5531.503    1.0993645e-15
 5534.155    1.1105180e-15
 5536.808    1.0725890e-15
 5539.460    1.0982230e-15
 5542.112    1.0708210e-15
 5544.765    1.0540860e-15
 5547.417    1.0687730e-15
 5550.070    1.0237370e-15
 5552.722    9.9612000e-16
 5555.375    9.9044590e-16
 5558.027    9.7346910e-16
 5560.680    9.5617280e-16
 5563.332    9.3620210e-16
 5565.985    9.6192780e-16
 5568.637    9.7307130e-16
 5571.289    9.5709170e-16
 5573.942    9.1698930e-16
 5576.594    9.2058540e-16
 5579.247    9.2894390e-16
 5581.899    9.2324020e-16
 5584.552    9.3470590e-16
 5587.204    9.3097240e-16
 5589.857    9.2618180e-16
 5592.509    9.3033290e-16
 5595.161    9.3276070e-16
 5597.814    9.3279800e-16
 5600.466    9.4617150e-16
 5603.119    9.6025100e-16
 5605.771    9.5079170e-16
 5608.424    9.6119960e-16
 5611.076    9.6348760e-16
 5613.729    9.6539840e-16
 5616.381    9.9129070e-16
 5619.033    9.8713940e-16
 5621.686    9.8810460e-16
 5624.338    9.9934240e-16
 5626.991    9.9985710e-16
 5629.643    9.9829100e-16
 5632.296    1.0070490e-15
 5634.948    1.0059570e-15
 5637.601    1.0199590e-15
 5640.253    1.0178620e-15
 5642.906    1.0017310e-15
 5645.558    1.0195540e-15
 5648.210    1.0302210e-15
 5650.863    1.0190130e-15
 5653.515    9.9766200e-16
 5656.168    1.0046060e-15
 5658.820    1.0232640e-15
 5661.473    1.0032960e-15
 5664.125    9.9367930e-16
 5666.778    1.0090300e-15
 5669.430    1.0026670e-15
 5672.082    9.8865200e-16
 5674.735    9.9036330e-16
 5677.387    1.0033270e-15
 5680.040    9.9934010e-16
 5682.692    9.7696720e-16
 5685.345    9.7972300e-16
 5687.997    9.7706700e-16
 5690.650    9.5469780e-16
 5693.302    9.6040410e-16
 5695.955    9.4233880e-16
 5698.607    9.4031740e-16
 5701.259    9.6001550e-16
 5703.912    9.6778650e-16
 5706.564    9.7044660e-16
 5709.217    9.5973500e-16
 5711.869    9.5869290e-16
 5714.522    9.5329170e-16
 5717.174    9.4201490e-16
 5719.827    9.4042100e-16
 5722.479    9.5082260e-16
 5725.131    9.4728430e-16
 5727.784    9.4701690e-16
 5730.436    9.4295790e-16
 5733.089    9.2745330e-16
 5735.741    9.0404430e-16
 5738.394    8.9734620e-16
 5741.046    9.0988360e-16
 5743.699    8.8373180e-16
 5746.351    8.8207300e-16
 5749.003    8.9666800e-16
 5751.656    8.6959760e-16
 5754.308    8.5615750e-16
 5756.961    8.6308270e-16
 5759.613    8.5353930e-16
 5762.266    8.4548070e-16
 5764.918    8.4964680e-16
 5767.571    8.5542570e-16
 5770.223    8.4198760e-16
 5772.876    8.2747720e-16
 5775.528    8.1640480e-16
 5778.180    8.3158690e-16
 5780.833    8.1756960e-16
 5783.485    8.1936940e-16
 5786.138    8.2414750e-16
 5788.790    8.1279120e-16
 5791.443    8.2010550e-16
 5794.095    8.2148830e-16
 5796.748    8.1586260e-16
 5799.400    7.8787600e-16
 5802.052    7.8388170e-16
 5804.705    7.9490010e-16
 5807.357    7.9002620e-16
 5810.010    7.9040650e-16
 5812.662    8.0074460e-16
 5815.315    8.0135350e-16
 5817.967    8.2480760e-16
 5820.620    8.4192660e-16
 5823.272    8.4604240e-16
 5825.925    8.6360980e-16
 5828.577    8.8363370e-16
 5831.229    8.7211920e-16
 5833.882    8.6078210e-16
 5836.534    8.8481500e-16
 5839.187    9.2904030e-16
 5841.839    9.2666580e-16
 5844.492    9.2648620e-16
 5847.144    9.2611760e-16
 5849.797    9.2556110e-16
 5852.449    9.2570940e-16
 5855.101    9.3458930e-16
 5857.754    9.4956260e-16
 5860.406    9.5753540e-16
 5863.059    9.4566520e-16
 5865.711    9.5312360e-16
 5868.364    9.8007150e-16
 5871.016    9.7545480e-16
 5873.669    9.6073040e-16
 5876.321    9.5272360e-16
 5878.973    9.3750600e-16
 5881.626    9.7144380e-16
 5884.278    9.6006370e-16
 5886.931    9.2950230e-16
 5889.583    9.2622440e-16
 5892.236    9.0800880e-16
 5894.888    9.1158190e-16
 5897.541    9.1062590e-16
 5900.193    9.1253790e-16
 5902.846    9.0673850e-16
 5905.498    9.3561910e-16
 5908.150    9.0629250e-16
 5910.803    9.1889040e-16
 5913.455    9.3901990e-16
 5916.108    9.3876990e-16
 5918.760    9.5202780e-16
 5921.413    9.4378420e-16
 5924.065    9.4269750e-16
 5926.718    9.5533520e-16
 5929.370    9.3950440e-16
 5932.022    9.5598590e-16
 5934.675    9.6477800e-16
 5937.327    9.5430960e-16
 5939.980    9.5546330e-16
 5942.632    9.5740110e-16
 5945.285    9.5932880e-16
 5947.937    9.6126260e-16
 5950.590    9.6314770e-16
 5953.242    9.6541790e-16
 5955.895    9.6610040e-16
 5958.547    9.5169130e-16
 5961.199    9.4379400e-16
 5963.852    9.5769880e-16
 5966.504    9.6197390e-16
 5969.157    9.4215040e-16
 5971.809    9.3234400e-16
 5974.462    9.3618890e-16
 5977.114    9.4749330e-16
 5979.767    9.6020330e-16
 5982.419    9.3797070e-16
 5985.071    9.2629770e-16
 5987.724    9.1551930e-16
 5990.376    9.0374500e-16
 5993.029    9.3889580e-16
 5995.681    9.2771410e-16
 5998.334    9.2362520e-16
 6000.986    9.2705820e-16
 6003.639    9.0916880e-16
 6006.291    9.2685140e-16
 6008.943    9.1530270e-16
 6011.596    9.2627900e-16
 6014.248    9.1978700e-16
 6016.901    8.9694970e-16
 6019.553    9.0865760e-16
 6022.206    8.9763300e-16
 6024.858    9.0345610e-16
 6027.511    9.0248620e-16
 6030.163    9.1041740e-16
 6032.816    9.2761120e-16
 6035.468    9.1573900e-16
 6038.120    8.9832830e-16
 6040.773    8.9105680e-16
 6043.425    8.8899130e-16
 6046.078    8.8191650e-16
 6048.730    8.7843000e-16
 6051.383    8.6497700e-16
 6054.035    8.6127830e-16
 6056.688    8.5858950e-16
 6059.340    8.4719910e-16
 6061.992    8.5708110e-16
 6064.645    8.8483450e-16
 6067.297    8.5570100e-16
 6069.950    8.5583510e-16
 6072.602    8.7325020e-16
 6075.255    8.4111940e-16
 6077.907    8.6033800e-16
 6080.560    8.7816120e-16
 6083.212    8.7140900e-16
 6085.865    8.7712960e-16
 6088.517    8.9484170e-16
 6091.169    9.0490200e-16
 6093.822    8.9280590e-16
 6096.474    8.9013060e-16
 6099.127    8.9862850e-16
 6101.779    9.1930290e-16
 6104.432    9.1119280e-16
 6107.084    9.2127550e-16
 6109.737    9.0849850e-16
 6112.389    8.9230930e-16
 6115.041    8.8543410e-16
 6117.694    8.9149980e-16
 6120.346    8.8604680e-16
 6122.999    8.8832100e-16
 6125.651    9.1451200e-16
 6128.304    8.9940290e-16
 6130.956    8.8540140e-16
 6133.609    8.8103180e-16
 6136.261    8.6981600e-16
 6138.913    8.7890900e-16
 6141.566    8.8353470e-16
 6144.218    8.5576570e-16
 6146.871    8.3710580e-16
 6149.523    8.4408460e-16
 6152.176    8.1367760e-16
 6154.828    8.2605880e-16
 6157.481    8.1515140e-16
 6160.133    8.0262580e-16
 6162.786    8.1578730e-16
 6165.438    8.3671430e-16
 6168.090    8.3317990e-16
 6170.743    8.3920910e-16
 6173.395    8.5957440e-16
 6176.048    8.6838950e-16
 6178.700    8.7081200e-16
 6181.353    8.7814490e-16
 6184.005    8.7245960e-16
 6186.658    8.7868380e-16
 6189.310    8.8361660e-16
 6191.962    8.9809070e-16
 6194.615    9.2262280e-16
 6197.267    9.1646780e-16
 6199.920    9.0617460e-16
 6202.572    8.9840130e-16
 6205.225    8.7308500e-16
 6207.877    8.8093820e-16
 6210.530    8.9604340e-16
 6213.182    9.1105380e-16
 6215.835    9.1100710e-16
 6218.487    8.9025100e-16
 6221.139    8.9511860e-16
 6223.792    8.8131450e-16
 6226.444    9.0619430e-16
 6229.097    9.0885160e-16
 6231.749    9.1440830e-16
 6234.402    8.9774760e-16
 6237.054    8.7980780e-16
 6239.707    8.7356530e-16
 6242.359    8.8879190e-16
 6245.011    8.6277820e-16
 6247.664    8.5558860e-16
 6250.316    8.5894400e-16
 6252.969    8.5273180e-16
 6255.621    8.2169010e-16
 6258.274    8.2590100e-16
 6260.926    8.1525590e-16
 6263.579    7.9864990e-16
 6266.231    8.0063710e-16
 6268.883    7.8092880e-16
 6271.536    7.8556310e-16
 6274.188    7.6621900e-16
 6276.841    7.6283020e-16
 6279.493    7.4849500e-16
 6282.146    7.3744020e-16
 6284.798    7.4779520e-16
 6287.451    7.4531680e-16
 6290.103    7.5201550e-16
 6292.756    7.9124480e-16
 6295.408    7.9890280e-16
 6298.060    7.6338940e-16
 6300.713    7.7731780e-16
 6303.365    7.9720010e-16
 6306.018    7.9681800e-16
 6308.670    8.1787370e-16
 6311.323    8.0772460e-16
 6313.975    8.1984950e-16
 6316.628    8.1683650e-16
 6319.280    8.0406980e-16
 6321.932    7.9793960e-16
 6324.585    8.2012610e-16
 6327.237    8.2974060e-16
 6329.890    8.0423170e-16
 6332.542    8.2182430e-16
 6335.195    8.2398210e-16
 6337.847    8.1554800e-16
 6340.500    8.2151520e-16
 6343.152    8.2433060e-16
 6345.805    8.0560860e-16
 6348.457    7.9510040e-16
 6351.109    8.1691390e-16
 6353.762    8.1126840e-16
 6356.414    8.0419880e-16
 6359.067    7.9370220e-16
 6361.719    8.0616040e-16
 6364.372    7.9639500e-16
 6367.024    8.0442060e-16
 6369.677    7.9258700e-16
 6372.329    8.0570070e-16
 6374.981    8.1149500e-16
 6377.634    8.0637250e-16
 6380.286    8.0940490e-16
 6382.939    8.1980300e-16
 6385.591    8.4673560e-16
 6388.244    8.3630020e-16
 6390.896    8.2714370e-16
 6393.549    8.3110410e-16
 6396.201    8.1111800e-16
 6398.853    7.9866080e-16
 6401.506    8.0066330e-16
 6404.158    7.9905490e-16
 6406.811    7.8994870e-16
 6409.463    7.7264450e-16
 6412.116    7.7314930e-16
 6414.768    7.7415070e-16
 6417.421    7.7295640e-16
 6420.073    7.5828670e-16
 6422.726    7.5839960e-16
 6425.378    7.4690410e-16
 6428.030    7.5747340e-16
 6430.683    7.5247980e-16
 6433.335    7.3449590e-16
 6435.988    7.3227500e-16
 6438.640    7.3950510e-16
 6441.293    7.4523500e-16
 6443.945    7.2929430e-16
 6446.598    7.2716970e-16
 6449.250    7.1273590e-16
 6451.902    7.2759170e-16
 6454.555    7.3730820e-16
 6457.207    7.2852050e-16
 6459.860    7.3285320e-16
 6462.512    7.3426250e-16
 6465.165    7.6848190e-16
 6467.817    7.7654240e-16
 6470.470    8.0076170e-16
 6473.122    8.0497240e-16
 6475.775    8.1528110e-16
 6478.427    8.7701000e-16
 6481.079    9.0118040e-16
 6483.732    9.0773260e-16
 6486.384    9.4843920e-16
 6489.037    9.6407000e-16
 6491.689    9.9533670e-16
 6494.342    1.0397950e-15
 6496.994    1.0659850e-15
 6499.647    1.0894800e-15
 6502.299    1.1129750e-15
 6504.951    1.1194110e-15
 6507.604    1.1318330e-15
 6510.256    1.1495090e-15
 6512.909    1.1847050e-15
 6515.561    1.2033880e-15
 6518.214    1.2157710e-15
 6520.866    1.2511480e-15
 6523.519    1.2976260e-15
 6526.171    1.3094480e-15
 6528.823    1.3154630e-15
 6531.476    1.3417270e-15
 6534.128    1.3804080e-15
 6536.781    1.3900780e-15
 6539.433    1.4114920e-15
 6542.086    1.4180540e-15
 6544.738    1.4396930e-15
 6547.391    1.4490030e-15
 6550.043    1.4732280e-15
 6552.696    1.4568730e-15
 6555.348    1.4770170e-15
 6558.000    1.4887870e-15
 6560.653    1.5043020e-15
 6563.305    1.4808060e-15
 6565.958    1.4727980e-15
 6568.610    1.4812100e-15
 6571.263    1.4957560e-15
 6573.915    1.4996230e-15
 6576.568    1.4832270e-15
 6579.220    1.4836440e-15
 6581.872    1.4837600e-15
 6584.525    1.5028890e-15
 6587.177    1.4764970e-15
 6589.830    1.4859890e-15
 6592.482    1.4868250e-15
 6595.135    1.4760870e-15
 6597.787    1.4721900e-15
 6600.440    1.4761150e-15
 6603.092    1.4599250e-15
 6605.745    1.4698280e-15
 6608.397    1.4635620e-15
 6611.049    1.4763210e-15
 6613.702    1.4531800e-15
 6616.354    1.4538990e-15
 6619.007    1.4600870e-15
 6621.659    1.4385380e-15
 6624.312    1.4323220e-15
 6626.964    1.4362350e-15
 6629.617    1.4263880e-15
 6632.269    1.4339370e-15
 6634.921    1.4238600e-15
 6637.574    1.4013970e-15
 6640.226    1.3906960e-15
 6642.879    1.4135850e-15
 6645.531    1.3959700e-15
 6648.184    1.3671920e-15
 6650.836    1.3539600e-15
 6653.489    1.3527100e-15
 6656.141    1.3364740e-15
 6658.793    1.3352340e-15
 6661.446    1.3239280e-15
 6664.098    1.3097510e-15
 6666.751    1.3025930e-15
 6669.403    1.2980140e-15
 6672.056    1.2569410e-15
 6674.708    1.2851210e-15
 6677.361    1.2423220e-15
 6680.013    1.2434450e-15
 6682.666    1.2269720e-15
 6685.318    1.2159920e-15
 6687.970    1.2265830e-15
 6690.623    1.1905460e-15
 6693.275    1.1891730e-15
 6695.928    1.1473000e-15
 6698.580    1.1438250e-15
 6701.233    1.1474270e-15
 6703.885    1.1341820e-15
 6706.538    1.1181270e-15
 6709.190    1.0875100e-15
 6711.842    1.0946650e-15
 6714.495    1.0837050e-15
 6717.147    1.0843940e-15
 6719.800    1.0747000e-15
 6722.452    1.0630930e-15
 6725.105    1.0671190e-15
 6727.757    1.0520210e-15
 6730.410    1.0383880e-15
 6733.062    1.0264040e-15
 6735.715    1.0035210e-15
 6738.367    1.0225620e-15
 6741.019    1.0055310e-15
 6743.672    1.0026480e-15
 6746.324    1.0220880e-15
 6748.977    1.0195660e-15
 6751.629    9.9606230e-16
 6754.282    9.8690600e-16
 6756.934    9.9634460e-16
 6759.587    9.7595710e-16
 6762.239    9.6849950e-16
 6764.891    9.7454370e-16
 6767.544    9.6875780e-16
 6770.196    9.7195680e-16
 6772.849    9.2774580e-16
 6775.501    9.3031470e-16
 6778.154    9.4085820e-16
 6780.806    9.5178450e-16
 6783.459    9.3541630e-16
 6786.111    9.0495090e-16
 6788.763    9.4042650e-16
 6791.416    9.0739920e-16
 6794.068    9.0217030e-16
 6796.721    9.0882350e-16
 6799.373    9.1117520e-16
 6802.026    8.7794040e-16
 6804.678    8.9883360e-16
 6807.331    9.2004670e-16
 6809.983    9.1932510e-16
 6812.636    8.8483000e-16
 6815.288    8.6839010e-16
 6817.940    8.7822350e-16
 6820.593    8.9344620e-16
 6823.245    8.7293500e-16
 6825.898    8.6442400e-16
 6828.550    8.7106270e-16
 6831.203    8.6533430e-16
 6833.855    8.7042520e-16
 6836.508    8.6138038e-16
 6839.160    8.5742645e-16
 6841.812    8.3538930e-16
 6844.465    8.2775020e-16
 6847.117    8.4951860e-16
 6849.770    8.4088360e-16
 6852.422    8.3539066e-16
 6855.075    8.3202925e-16
 6857.727    8.2351383e-16
 6860.380    8.1371048e-16
 6863.032    8.5044631e-16
 6865.685    8.3986702e-16
 6868.337    8.1986118e-16
 6870.989    8.3003317e-16
 6873.642    8.1395799e-16
 6876.294    8.2193805e-16
 6878.947    8.1094744e-16
 6881.599    8.1926230e-16
 6884.252    8.1587162e-16
 6886.904    7.9552785e-16
 6889.557    8.1284894e-16
 6892.209    8.0010492e-16
 6894.861    7.8673653e-16
 6897.514    8.1327097e-16
 6900.166    8.0589617e-16
 6902.819    8.0867879e-16
 6905.471    7.9766099e-16
 6908.124    7.8415145e-16
 6910.776    7.9433673e-16
 6913.429    7.8057055e-16
 6916.081    7.9386167e-16
 6918.733    7.8991215e-16
 6921.386    7.9837293e-16
 6924.038    7.8701370e-16
 6926.691    7.7458560e-16
 6929.343    7.7326945e-16
 6931.996    7.6990527e-16
 6934.648    7.9663280e-16
 6937.301    7.7833664e-16
 6939.953    7.9330569e-16
 6942.606    7.5744760e-16
 6945.258    7.7868820e-16
 6947.910    7.9394840e-16
 6950.563    7.8433290e-16
 6953.215    7.7862070e-16
 6955.868    7.7632530e-16
 6958.520    7.5778950e-16
 6961.173    7.7836370e-16
 6963.825    7.7313280e-16
 6966.478    7.6009510e-16
 6969.130    7.6343930e-16
 6971.782    7.7689370e-16
 6974.435    7.6284660e-16
 6977.087    7.7344170e-16
 6979.740    7.7877520e-16
 6982.392    7.7586270e-16
 6985.045    7.6938220e-16
 6987.697    7.8106130e-16
 6990.350    7.7941580e-16
 6993.002    7.8872720e-16
 6995.655    7.6496850e-16
 6998.307    7.6802760e-16
 7000.959    7.9437340e-16
 7003.612    7.8538110e-16
 7006.264    7.6351750e-16
 7008.917    7.7663060e-16
 7011.569    7.9339350e-16
 7014.222    7.7159780e-16
 7016.874    7.6511320e-16
 7019.527    7.8566580e-16
 7022.179    7.8728580e-16
 7024.831    7.8111040e-16
 7027.484    7.6769240e-16
 7030.136    7.8345580e-16
 7032.789    7.7721550e-16
 7035.441    7.8072020e-16
 7038.094    7.7428530e-16
 7040.746    7.6460790e-16
 7043.399    7.7244420e-16
 7046.051    7.7446840e-16
 7048.703    7.6591380e-16
 7051.356    7.6564910e-16
 7054.008    7.6289070e-16
 7056.661    7.4273010e-16
 7059.313    7.5931590e-16
 7061.966    7.6399900e-16
 7064.618    7.6571080e-16
 7067.271    7.5638790e-16
 7069.923    7.4082640e-16
 7072.576    7.5364370e-16
 7075.228    7.5239640e-16
 7077.880    7.4679880e-16
 7080.533    7.2941630e-16
 7083.185    7.3559620e-16
 7085.838    7.4035340e-16
 7088.490    7.5173910e-16
 7091.143    7.3953500e-16
 7093.795    7.2503470e-16
 7096.448    7.2465250e-16
 7099.100    7.2649200e-16
 7101.752    7.1828280e-16
 7104.405    7.2302400e-16
 7107.057    7.2320400e-16
 7109.710    7.1539030e-16
 7112.362    7.0980830e-16
 7115.015    7.1918540e-16
 7117.667    7.0647340e-16
 7120.320    6.9564060e-16
 7122.972    7.2119290e-16
 7125.625    7.1884700e-16
 7128.277    7.1173440e-16
 7130.929    7.3387630e-16
 7133.582    7.3351410e-16
 7136.234    7.0369550e-16
 7138.887    7.1372040e-16
 7141.539    7.4566300e-16
 7144.192    7.5779660e-16
 7146.844    7.3317120e-16
 7149.497    7.3112160e-16
 7152.149    7.3182230e-16
 7154.801    7.5240800e-16
 7157.454    7.6112190e-16
 7160.106    7.4919500e-16
 7162.759    7.3908160e-16
 7165.411    7.4357850e-16
 7168.064    7.4063910e-16
 7170.716    7.3042670e-16
 7173.369    7.2532890e-16
 7176.021    7.1186780e-16
 7178.674    6.9778540e-16
 7181.326    7.0198510e-16
 7183.978    7.0415500e-16
 7186.631    6.9969440e-16
 7189.283    6.9527320e-16
 7191.936    6.9122760e-16
 7194.588    6.7919160e-16
 7197.241    6.8961700e-16
 7199.893    6.8892680e-16
 7202.546    6.8539530e-16
 7205.198    6.9003590e-16
 7207.850    6.6718870e-16
 7210.503    6.6917780e-16
 7213.155    6.9593230e-16
 7215.808    7.1916330e-16
 7218.460    7.1649910e-16
 7221.113    6.9984190e-16
 7223.765    6.9997410e-16
 7226.418    7.1282970e-16
 7229.070    7.0673020e-16
 7231.722    7.0202310e-16
 7234.375    6.8429240e-16
 7237.027    6.8293370e-16
 7239.680    6.8774010e-16
 7242.332    6.8438410e-16
 7244.985    6.7662820e-16
 7247.637    6.8812220e-16
 7250.290    6.9010930e-16
 7252.942    6.8525860e-16
 7255.595    6.8989010e-16
 7258.247    7.0203150e-16
 7260.899    7.0637740e-16
 7263.552    7.1498680e-16
 7266.204    7.0396010e-16
 7268.857    7.0584990e-16
 7271.509    7.0646520e-16
 7274.162    7.0612720e-16
 7276.814    6.9888840e-16
 7279.467    7.0699890e-16
 7282.119    7.3088950e-16
 7284.771    7.1361365e-16
 7287.424    7.1030627e-16
 7290.076    7.2022840e-16
 7292.729    6.9303220e-16
 7295.381    7.0197030e-16
 7298.034    7.1314750e-16
 7300.686    7.0559070e-16
 7303.339    7.0946830e-16
 7305.991    7.1532490e-16
 7308.644    7.1335790e-16
 7311.296    7.1381050e-16
 7313.948    7.0416920e-16
 7316.601    6.9650070e-16
 7319.253    7.0237240e-16
 7321.906    7.0999920e-16
 7324.558    7.3347820e-16
 7327.211    7.3315750e-16
 7329.863    7.1341380e-16
 7332.516    7.1909830e-16
 7335.168    7.2726240e-16
 7337.820    7.0562210e-16
 7340.473    7.0752820e-16
 7343.125    7.2645160e-16
 7345.778    7.0138260e-16
 7348.430    7.1094100e-16
 7351.083    7.0870030e-16
 7353.735    7.0106390e-16
 7356.388    7.0613240e-16
 7359.040    6.9925790e-16
 7361.692    6.9648330e-16
 7364.345    6.8678800e-16
 7366.997    6.9239570e-16
 7369.650    6.9131570e-16
 7372.302    7.0241420e-16
 7374.955    7.0778880e-16
 7377.607    7.0531960e-16
 7380.260    6.9329760e-16
 7382.912    6.9850290e-16
 7385.565    7.1932890e-16
 7388.217    7.2060430e-16
 7390.869    7.1507050e-16
 7393.522    7.1360400e-16
 7396.174    7.1608580e-16
 7398.827    7.0820190e-16
 7401.479    7.1035590e-16
 7404.132    7.1268580e-16
 7406.784    7.2111820e-16
 7409.437    7.1410650e-16
 7412.089    7.0192340e-16
 7414.741    7.0252190e-16
 7417.394    7.0555500e-16
 7420.046    7.0980260e-16
 7422.699    7.0610490e-16
 7425.351    6.9265810e-16
 7428.004    6.8906330e-16
 7430.656    7.0244370e-16
 7433.309    6.9787350e-16
 7435.961    6.9069190e-16
 7438.614    7.1099200e-16
 7441.266    7.0364910e-16
 7443.918    6.9010750e-16
 7446.571    6.9578240e-16
 7449.223    7.0463410e-16
 7451.876    7.0218360e-16
 7454.528    7.0928390e-16
 7457.181    7.1760670e-16
 7459.833    7.0133100e-16
 7462.486    6.8550770e-16
 7465.138    7.0697930e-16
 7467.790    7.2061710e-16
 7470.443    7.0404310e-16
 7473.095    6.9268190e-16
 7475.748    6.8308680e-16
 7478.400    6.8573630e-16
 7481.053    7.1127690e-16
 7483.705    7.1786310e-16
 7486.358    7.0526210e-16
 7489.010    7.0939150e-16
 7491.662    7.0944550e-16
 7494.315    6.8398240e-16
 7496.967    7.1405120e-16
 7499.620    7.0803040e-16
 7502.272    7.1419860e-16
 7504.925    7.1775440e-16
 7507.577    7.0189340e-16
 7510.230    6.9722350e-16
 7512.882    6.9622760e-16
 7515.535    6.9278900e-16
 7518.187    7.0865150e-16
 7520.839    7.0023150e-16
 7523.492    6.9451940e-16
 7526.144    7.2028840e-16
 7528.797    7.0483340e-16
 7531.449    6.7925840e-16
 7534.102    6.9996570e-16
 7536.754    7.0009080e-16
 7539.407    6.9427580e-16
 7542.059    6.9663180e-16
 7544.711    6.9559090e-16
 7547.364    6.7361280e-16
 7550.016    6.9192450e-16
 7552.669    7.0077580e-16
 7555.321    6.7164340e-16
 7557.974    6.7996630e-16
 7560.626    6.8150170e-16
 7563.279    6.6668620e-16
 7565.931    6.7186430e-16
 7568.584    6.6590550e-16
 7571.236    6.6181210e-16
 7573.888    6.5881810e-16
 7576.541    6.6461150e-16
 7579.193    6.5291140e-16
 7581.846    6.3694765e-16
 7584.498    6.1887310e-16
 7587.151    6.2098391e-16
 7589.803    6.1335152e-16
 7592.456    6.3003888e-16
 7595.108    6.0029918e-16
 7597.760    6.2818053e-16
 7600.413    6.2447821e-16
 7603.065    6.1306903e-16
 7605.718    5.8704110e-16
 7608.370    5.8775869e-16
 7611.023    5.8629196e-16
 7613.675    5.9615434e-16
 7616.328    5.6348245e-16
 7618.980    5.9723807e-16
 7621.632    5.6831499e-16
 7624.285    5.9913007e-16
 7626.937    5.8510383e-16
 7629.590    5.3829388e-16
 7632.242    5.7558543e-16
 7634.895    5.3390299e-16
 7637.547    5.4056517e-16
 7640.200    5.6545704e-16
 7642.852    5.4209049e-16
 7645.505    5.3733796e-16
 7648.157    5.5964185e-16
 7650.809    5.2944342e-16
 7653.462    5.3042069e-16
 7656.114    5.5633527e-16
 7658.767    5.4147777e-16
 7661.419    5.2653422e-16
 7664.072    5.2725639e-16
 7666.724    5.0930410e-16
 7669.377    5.4505059e-16
 7672.029    5.2688460e-16
 7674.681    5.4269738e-16
 7677.334    5.5265157e-16
 7679.986    5.5343591e-16
 7682.639    5.1429420e-16
 7685.291    5.2170930e-16
 7687.944    5.4512580e-16
 7690.596    5.6066170e-16
 7693.249    5.5775840e-16
 7695.901    5.7191125e-16
 7698.554    5.8316080e-16
 7701.206    5.8797250e-16
 7703.858    5.9822780e-16
 7706.511    6.0218070e-16
 7709.163    6.1718070e-16
 7711.816    6.2500350e-16
 7714.468    6.4072450e-16
 7717.121    6.6342740e-16
 7719.773    6.3576320e-16
 7722.426    6.4614800e-16
 7725.078    6.4935760e-16
 7727.730    6.3113400e-16
 7730.383    6.5776990e-16
 7733.035    6.5221350e-16
 7735.688    6.5544460e-16
 7738.340    6.4841530e-16
 7740.993    6.5385060e-16
 7743.645    6.8162780e-16
 7746.298    6.7321440e-16
 7748.950    6.4935840e-16
 7751.602    6.6158090e-16
 7754.255    6.7148630e-16
 7756.907    6.6484670e-16
 7759.560    6.6951540e-16
 7762.212    6.7118630e-16
 7764.865    6.4999910e-16
 7767.517    6.6025870e-16
 7770.170    6.5678850e-16
 7772.822    6.8111390e-16
 7775.475    6.8189100e-16
 7778.127    6.6769230e-16
 7780.779    6.5720720e-16
 7783.432    6.3308290e-16
 7786.084    6.4701790e-16
 7788.737    6.4431710e-16
 7791.389    6.6281020e-16
 7794.042    6.9063230e-16
 7796.694    6.7042000e-16
 7799.347    6.4244890e-16
 7801.999    6.5335900e-16
 7804.651    6.6314150e-16
 7807.304    6.7769390e-16
 7809.956    6.7251130e-16
 7812.609    6.7685460e-16
 7815.261    6.8227710e-16
 7817.914    6.8831440e-16
 7820.566    6.9823780e-16
 7823.219    6.8325520e-16
 7825.871    6.8197040e-16
 7828.524    6.7897250e-16
 7831.176    6.8008220e-16
 7833.828    6.7227460e-16
 7836.481    6.7493360e-16
 7839.133    7.0285230e-16
 7841.786    6.9495980e-16
 7844.438    6.6783280e-16
 7847.091    6.7781930e-16
 7849.743    6.7850160e-16
 7852.396    6.8358400e-16
 7855.048    6.8875720e-16
 7857.700    6.5590690e-16
 7860.353    6.8523730e-16
 7863.005    6.8322080e-16
 7865.658    6.6968180e-16
 7868.310    6.6561820e-16
 7870.963    6.7886560e-16
 7873.615    6.7021570e-16
 7876.268    6.7686810e-16
 7878.920    6.7911770e-16
 7881.572    6.8496510e-16
 7884.225    6.8320270e-16
 7886.877    6.9714040e-16
 7889.530    6.6304250e-16
 7892.182    6.6562940e-16
 7894.835    6.5403900e-16
 7897.487    6.6599650e-16
 7900.140    6.5145420e-16
 7902.792    6.9021180e-16
 7905.445    6.6662410e-16
 7908.097    6.7153200e-16
 7910.749    6.7876080e-16
 7913.402    6.6525620e-16
 7916.054    6.5983650e-16
 7918.707    6.3733260e-16
 7921.359    6.5872200e-16
 7924.012    6.7175850e-16
 7926.664    6.6405890e-16
 7929.317    6.7166270e-16
 7931.969    6.3963260e-16
 7934.621    6.3558290e-16
 7937.274    6.6456950e-16
 7939.926    6.5442400e-16
 7942.579    6.2672570e-16
 7945.231    6.2688820e-16
 7947.884    6.4498410e-16
 7950.536    6.4756670e-16
 7953.189    6.2309710e-16
 7955.841    6.2046460e-16
 7958.494    6.2423140e-16
 7961.146    6.4944040e-16
 7963.798    6.3841520e-16
 7966.451    6.4522580e-16
 7969.103    6.3845580e-16
 7971.756    6.2647740e-16
 7974.408    6.4068020e-16
 7977.061    6.2839430e-16
 7979.713    6.4146060e-16
 7982.366    6.2551090e-16
 7985.018    6.2547680e-16
 7987.670    6.2684080e-16
 7990.323    6.2781000e-16
 7992.975    6.3276630e-16
 7995.628    6.1053030e-16
 7998.280    6.0862460e-16
 8000.933    6.0706170e-16
 8003.585    6.2160360e-16
 8006.238    6.0144170e-16
 8008.890    6.3670030e-16
 8011.542    6.1282280e-16
 8014.195    6.3060310e-16
 8016.847    6.1634580e-16
 8019.500    6.0763780e-16
 8022.152    6.0398230e-16
 8024.805    6.0221260e-16
 8027.457    6.0669730e-16
 8030.110    6.1820660e-16
 8032.762    6.2010120e-16
 8035.415    5.9658960e-16
 8038.067    5.9348090e-16
 8040.719    6.1872210e-16
 8043.372    6.1903150e-16
 8046.024    5.9168620e-16
 8048.677    5.7642080e-16
 8051.329    6.0740310e-16
 8053.982    5.9328250e-16
 8056.634    5.9478110e-16
 8059.287    5.8923980e-16
 8061.939    6.0316660e-16
 8064.591    5.9757660e-16
 8067.244    6.1434320e-16
 8069.896    6.0483230e-16
 8072.549    5.9100180e-16
 8075.201    5.9919480e-16
 8077.854    5.7935800e-16
 8080.506    5.9437370e-16
 8083.159    5.9045720e-16
 8085.811    5.8784160e-16
 8088.464    5.7721250e-16
 8091.116    5.7786970e-16
 8093.768    5.9628780e-16
 8096.421    5.8072390e-16
 8099.073    5.8475750e-16
 8101.726    5.8401980e-16
 8104.378    5.8367170e-16
 8107.031    5.6904230e-16
 8109.683    5.6142880e-16
 8112.336    5.6775090e-16
 8114.988    5.7242180e-16
 8117.640    5.6862820e-16
 8120.293    5.6181760e-16
 8122.945    5.8715320e-16
 8125.598    5.8464770e-16
 8128.250    5.7673550e-16
 8130.903    5.5822400e-16
 8133.555    5.6199050e-16
 8136.208    5.5266060e-16
 8138.860    5.3733210e-16
 8141.512    5.4306730e-16
 8144.165    5.7341510e-16
 8146.817    5.6706660e-16
 8149.470    5.3429950e-16
 8152.122    5.3864240e-16
 8154.775    5.6189280e-16
 8157.427    5.4198165e-16
 8160.080    5.6939650e-16
 8162.732    5.4532090e-16
 8165.385    5.2838340e-16
 8168.037    5.4960990e-16
 8170.689    5.5866070e-16
 8173.342    5.6246430e-16
 8175.994    5.6056250e-16
 8178.647    5.7471460e-16
 8181.299    5.6570250e-16
 8183.952    5.5301620e-16
 8186.604    5.5305930e-16
 8189.257    5.7512410e-16
 8191.909    5.6439970e-16
 8194.561    5.4938360e-16
 8197.214    5.5152700e-16
 8199.866    5.4281420e-16
 8202.519    5.6348440e-16
 8205.171    5.8790650e-16
 8207.824    5.8701910e-16
 8210.476    5.7795940e-16
 8213.129    5.7136720e-16
 8215.781    5.7178180e-16
 8218.434    5.8459970e-16
 8221.086    5.5381210e-16
 8223.738    5.5749570e-16
 8226.391    5.4433160e-16
 8229.043    5.4263635e-16
 8231.696    5.4348397e-16
 8234.348    5.2836980e-16
 8237.001    5.4094110e-16
 8239.653    5.5478280e-16
 8242.306    5.6975540e-16
 8244.958    5.4656790e-16
 8247.610    5.4778350e-16
 8250.263    5.4751215e-16
 8252.915    5.6902470e-16
 8255.568    5.4724080e-16
 8258.220    5.3761620e-16
 8260.873    5.2559380e-16
 8263.525    5.4416550e-16
 8266.178    5.6054840e-16
 8268.830    5.5418910e-16
 8271.482    5.6219770e-16
 8274.135    5.3311490e-16
 8276.787    5.1772100e-16
 8279.440    5.4028460e-16
 8282.092    5.4442150e-16
 8284.745    5.1977260e-16
 8287.397    5.1276110e-16
 8290.050    5.1662140e-16
 8292.702    5.0087500e-16
 8295.355    4.8294800e-16
 8298.007    5.0309370e-16
 8300.659    5.0196080e-16
 8303.312    4.8500550e-16
 8305.964    4.8687710e-16
 8308.617    4.7750020e-16
 8311.269    4.7644080e-16
 8313.922    4.6663640e-16
 8316.574    4.6095220e-16
 8319.227    4.5632410e-16
 8321.879    4.4175100e-16
 8324.531    4.2769800e-16
 8327.184    4.1846950e-16
 8329.836    4.1994580e-16
 8332.489    4.1786150e-16
 8335.141    4.1709520e-16
 8337.794    3.9173170e-16
 8340.446    3.9472480e-16
 8343.099    4.1571880e-16
 8345.751    4.1044470e-16
 8348.404    4.1910140e-16
 8351.056    4.2842240e-16
 8353.708    3.9552000e-16
 8356.361    3.7660480e-16
 8359.013    3.7855410e-16
 8361.666    3.7858880e-16
 8364.318    3.8126210e-16
 8366.971    3.8803190e-16
 8369.623    3.8814410e-16
 8372.276    3.6194550e-16
 8374.928    3.7800070e-16
 8377.580    3.8722200e-16
 8380.233    3.5707120e-16
 8382.885    3.4327510e-16
 8385.538    3.5727900e-16
 8388.190    3.5200320e-16
 8390.843    3.5221550e-16
 8393.495    3.6727020e-16
 8396.148    3.6180130e-16
 8398.800    3.6263190e-16
 8401.452    3.8235610e-16
 8404.105    3.9021110e-16
 8406.757    3.7838690e-16
 8409.410    3.9558710e-16
 8412.062    3.7820920e-16
 8414.715    3.7072860e-16
 8417.367    4.0578310e-16
 8420.020    3.9278250e-16
 8422.672    3.7713350e-16
 8425.325    3.9342220e-16
 8427.977    4.2480810e-16
 8430.629    4.3080270e-16
 8433.282    4.3897740e-16
 8435.934    4.5067470e-16
 8438.587    4.3289410e-16
 8441.239    4.4918090e-16
 8443.892    4.5951530e-16
 8446.544    4.5278000e-16
 8449.197    4.6360790e-16
 8451.849    4.6652300e-16
 8454.501    4.9630040e-16
 8457.154    5.1803530e-16
 8459.806    5.1128140e-16
 8462.459    5.1427470e-16
 8465.111    5.0342960e-16
 8467.764    5.0100560e-16
 8470.416    5.1840700e-16
 8473.069    5.0875730e-16
 8475.721    5.0353310e-16
 8478.374    5.2305020e-16
 8481.026    5.2702200e-16
 8483.678    5.0157280e-16
 8486.331    4.8509170e-16
 8488.983    5.1692780e-16
 8491.636    5.0213470e-16
 8494.288    4.9150970e-16
 8496.941    5.1467600e-16
 8499.593    5.0830330e-16
 8502.246    4.7413200e-16
 8504.898    4.8978820e-16
 8507.550    5.0395040e-16
 8510.203    4.9740730e-16
 8512.855    5.0626390e-16
 8515.508    4.9137670e-16
 8518.160    4.8985260e-16
 8520.813    4.8288810e-16
 8523.465    4.7988110e-16
 8526.118    4.8490300e-16
 8528.770    4.9474800e-16
 8531.422    4.8348360e-16
 8534.075    4.5998060e-16
 8536.727    4.7754240e-16
 8539.380    4.7907790e-16
 8542.032    4.7745550e-16
 8544.685    4.8226110e-16
 8547.337    4.6892330e-16
 8549.990    4.7629230e-16
 8552.642    5.0377320e-16
 8555.295    4.8448860e-16
 8557.947    4.9431880e-16
 8560.599    5.0830330e-16
 8563.252    4.9985970e-16
 8565.904    5.1100000e-16
 8568.557    5.3746040e-16
 8571.209    5.4520290e-16
 8573.862    5.3529190e-16
 8576.514    5.4724690e-16
 8579.167    5.6298710e-16
 8581.819    5.5425200e-16
 8584.471    5.3761980e-16
 8587.124    5.6421580e-16
 8589.776    5.5845710e-16
 8592.429    5.6261280e-16
 8595.081    5.9214350e-16
 8597.734    5.9348610e-16
 8600.386    6.1438800e-16
 8603.039    6.1598430e-16
 8605.691    5.8990040e-16
 8608.344    5.9421180e-16
 8610.996    6.1849500e-16
 8613.648    6.1325040e-16
 8616.301    6.0136550e-16
 8618.953    6.0312630e-16
 8621.606    6.2850010e-16
 8624.258    6.1637890e-16
 8626.911    6.1120070e-16
 8629.563    6.1264770e-16
 8632.216    6.0365470e-16
 8634.868    5.9354540e-16
 8637.520    6.1403470e-16
 8640.173    6.3244110e-16
 8642.825    6.1666950e-16
 8645.478    6.0791770e-16
 8648.130    6.0841120e-16
 8650.783    6.3835450e-16
 8653.435    6.3346725e-16
 8656.088    6.5242400e-16
 8658.740    6.4827650e-16
 8661.392    6.2858000e-16
 8664.045    6.3045370e-16
 8666.697    6.3802120e-16
 8669.350    6.3216910e-16
 8672.002    6.4855490e-16
 8674.655    6.3074970e-16
 8677.307    6.2524210e-16
 8679.960    6.3795390e-16
 8682.612    6.0262470e-16
 8685.265    6.2187220e-16
 8687.917    6.4633220e-16
 8690.569    6.1908090e-16
 8693.222    6.1544050e-16
 8695.874    6.0445910e-16
 8698.527    6.1639280e-16
 8701.179    6.1482790e-16
 8703.832    6.1656020e-16
 8706.484    6.3156410e-16
 8709.137    6.1471090e-16
 8711.789    6.1702110e-16
 8714.441    6.2486220e-16
 8717.094    6.2010990e-16
 8719.746    6.3998290e-16
 8722.399    6.4532780e-16
 8725.051    6.2885090e-16
 8727.704    6.0332800e-16
 8730.356    6.2931580e-16
 8733.009    6.1213560e-16
 8735.661    5.8490710e-16
 8738.314    6.1599140e-16
 8740.966    6.0127240e-16
 8743.618    5.8667110e-16
 8746.271    6.0481160e-16
 8748.923    5.9382640e-16
 8751.576    5.7621180e-16
 8754.228    6.0593600e-16
 8756.881    6.0938590e-16
 8759.533    5.7149850e-16
 8762.186    5.7646310e-16
 8764.838    5.6920220e-16
 8767.490    5.4743990e-16
 8770.143    5.6987630e-16
 8772.795    5.6843020e-16
 8775.448    5.5643280e-16
 8778.100    5.5470680e-16
 8780.753    5.5792610e-16
 8783.405    5.4998315e-16
 8786.058    5.4525950e-16
 8788.710    5.0513240e-16
 8791.362    4.9893940e-16
 8794.015    5.1981960e-16
 8796.667    5.4307270e-16
 8799.320    5.1686190e-16
 8801.972    5.0387100e-16
 8804.625    5.2030530e-16
 8807.277    5.1705410e-16
 8809.930    5.1338410e-16
 8812.582    4.8974880e-16
 8815.235    5.0871950e-16
 8817.887    5.1654210e-16
 8820.539    5.2164130e-16
 8823.192    5.4021380e-16
 8825.844    5.0991580e-16
 8828.497    5.0328950e-16
 8831.149    4.9633330e-16
 8833.802    4.9579230e-16
 8836.454    5.1313500e-16
 8839.107    5.0988120e-16
 8841.759    5.1547400e-16
 8844.411    5.2078490e-16
 8847.064    5.0895250e-16
 8849.716    5.0249920e-16
 8852.369    5.1283110e-16
 8855.021    4.8392210e-16
 8857.674    4.8186250e-16
 8860.326    5.2381420e-16
 8862.979    5.2953920e-16
 8865.631    5.2084300e-16
 8868.284    5.0954710e-16
 8870.936    5.0377300e-16
 8873.588    5.0057570e-16
 8876.241    5.0122600e-16
 8878.893    5.1857110e-16
 8881.546    4.9501080e-16
 8884.198    4.9657380e-16
 8886.851    5.0800550e-16
 8889.503    5.0958600e-16
 8892.156    5.1745730e-16
 8894.808    5.0095050e-16
 8897.460    4.6995910e-16
 8900.113    4.8904350e-16
 8902.765    4.8867680e-16
 8905.418    4.6111810e-16
 8908.070    4.6356470e-16
 8910.723    4.8809350e-16
 8913.375    4.9366700e-16
 8916.028    4.9766920e-16
 8918.680    4.7320980e-16
 8921.332    4.7852660e-16
 8923.985    5.0535310e-16
 8926.637    4.8573280e-16
 8929.290    4.4946640e-16
 8931.942    4.8678550e-16
 8934.595    4.7401750e-16
 8937.247    4.6159200e-16
 8939.900    4.7777400e-16
 8942.552    4.4249180e-16
 8945.205    4.4285520e-16
 8947.857    4.6199030e-16
 8950.509    4.3033960e-16
 8953.162    4.2263890e-16
 8955.814    4.4667570e-16
 8958.467    4.6401170e-16
 8961.119    4.5396590e-16
 8963.772    4.3174870e-16
 8966.424    4.3036370e-16
 8969.077    4.1389010e-16
 8971.729    3.9381650e-16
 8974.381    4.2011870e-16
 8977.034    4.3767520e-16
 8979.686    4.2145560e-16
 8982.339    4.0128100e-16
 8984.991    4.0867950e-16
 8987.644    4.2436550e-16
 8990.296    3.8919210e-16
 8992.949    3.8809620e-16
 8995.601    3.9246330e-16
 8998.254    4.3874400e-16
 9000.906    4.4690640e-16
 9003.558    4.4153930e-16
 9006.211    4.0590140e-16
 9008.863    4.0869390e-16
 9011.516    4.5964310e-16
 9014.168    4.4991950e-16
 9016.821    4.3359420e-16
 9019.473    4.1971300e-16
 9022.126    4.4720870e-16
 9024.778    4.4366480e-16
 9027.430    4.3480520e-16
 9030.083    4.3960140e-16
 9032.735    4.4974190e-16
 9035.388    4.6238640e-16
 9038.040    4.5525760e-16
 9040.693    4.6252170e-16
 9043.345    4.5863730e-16
 9045.998    4.5308850e-16
 9048.650    4.7934850e-16
 9051.302    4.3891980e-16
 9053.955    4.7153650e-16
 9056.607    4.3091460e-16
 9059.260    4.2901130e-16
 9061.912    4.0348630e-16
 9064.565    4.0865880e-16
 9067.217    4.3298340e-16
 9069.870    4.2425210e-16
 9072.522    3.8696760e-16
 9075.175    3.7992110e-16
 9077.827    3.7789450e-16
 9080.479    3.8078600e-16
 9083.132    3.5328130e-16
 9085.784    3.5132050e-16
 9088.437    3.4484220e-16
 9091.089    3.4138730e-16
 9093.742    3.5337760e-16
 9096.394    3.5156420e-16
 9099.047    3.6707420e-16
 9101.699    3.5274500e-16
 9104.351    3.5916320e-16
 9107.004    3.4496710e-16
 9109.656    3.3933840e-16
 9112.309    3.2463520e-16
 9114.961    3.3858080e-16
 9117.614    3.6753060e-16
 9120.266    3.2959090e-16
 9122.919    3.3782320e-16
 9125.571    3.5089070e-16
 9128.224    3.4996430e-16
 9130.876    3.4737570e-16
 9133.528    3.4961810e-16
 9136.181    3.3834020e-16
 9138.833    3.5189635e-16
 9141.486    3.5417460e-16
 9144.138    3.5873110e-16
 9146.791    3.7266060e-16
 9149.443    3.7543210e-16
 9152.096    3.8235540e-16
 9154.748    3.6735480e-16
 9157.400    3.9569000e-16
 9160.053    4.0618340e-16
 9162.705    3.7647660e-16
 9165.358    3.6931540e-16
 9168.010    3.9800650e-16
 9170.663    4.0740040e-16
 9173.315    3.9020310e-16
 9175.968    4.1431310e-16
 9178.620    3.8864440e-16
 9181.272    3.8801250e-16
 9183.925    4.0838560e-16
 9186.577    4.4525530e-16
 9189.230    4.1155250e-16
 9191.882    4.4007350e-16
 9194.535    4.4664770e-16
 9197.187    4.4298800e-16
 9199.840    4.5289650e-16
 9202.492    4.4977210e-16
 9205.145    4.3112890e-16
 9207.797    4.5587730e-16
 9210.449    4.7525170e-16
 9213.102    4.6502490e-16
 9215.754    4.6933280e-16
 9218.407    4.5494860e-16
 9221.059    4.8110610e-16
 9223.712    4.9890870e-16
 9226.364    4.4496700e-16
 9229.017    4.6285700e-16
 9231.669    4.8909370e-16
 9234.321    4.4438580e-16
 9236.974    4.9305640e-16
 9239.626    4.7249720e-16
 9242.279    4.4175590e-16
 9244.931    4.5604975e-16
 9247.584    4.7034360e-16
 9250.236    4.5400093e-16
 9252.889    4.3382870e-16
 9255.541    4.5195210e-16
 9258.194    4.7116590e-16
 9260.846    4.3741340e-16
 9263.498    4.4659130e-16
 9266.151    4.4200235e-16
 9268.803    4.4792690e-16
 9271.456    4.2075880e-16
 9274.108    4.1090950e-16
 9276.761    4.3691490e-16
 9279.413    4.3311210e-16
 9282.066    4.3022270e-16
 9284.718    4.3365840e-16
 9287.370    4.0735470e-16
 9290.023    4.0187230e-16
 9292.675    4.0551680e-16
 9295.328    4.1807690e-16
 9297.980    4.0966660e-16
 9300.633    3.7688870e-16
 9303.285    3.8487350e-16
 9305.938    3.7764550e-16
 9308.590    3.8789520e-16
 9311.242    3.4477250e-16
 9313.895    3.3714060e-16
 9316.547    3.3814780e-16
 9319.200    3.5038510e-16
 9321.852    3.5509140e-16
 9324.505    3.0832740e-16
 9327.157    3.3956750e-16
 9329.810    3.3178120e-16
 9332.462    3.4279510e-16
 9335.115    3.3633990e-16
 9337.767    3.0142250e-16
 9340.419    2.9721810e-16
 9343.072    3.1399120e-16
 9345.724    3.0288040e-16
 9348.377    2.9828670e-16
 9351.029    3.4232650e-16
 9353.682    3.1966105e-16
 9356.334    3.2791470e-16
 9358.987    3.1374120e-16
 9361.639    3.2558090e-16
 9364.291    3.2560210e-16
 9366.944    3.2559150e-16
 9369.596    3.2562330e-16
 9372.249    3.2561270e-16
 9374.901    3.2626550e-16
 9377.554    3.6040090e-16
 9380.206    3.2593910e-16
 9382.859    3.4333320e-16
 9385.511    3.6065150e-16
 9388.164    3.6090210e-16
 9390.816    3.8155545e-16
 9393.468    4.0220880e-16
 9396.121    4.0538445e-16
 9398.773    4.1090580e-16
 9401.426    4.0379662e-16
 9404.078    4.0856010e-16
 9406.731    3.6066860e-16
 9409.383    3.6273290e-16
 9412.036    3.8180430e-16
 9414.688    3.9085060e-16
 9417.340    3.8754670e-16
 9419.993    3.7407030e-16
 9422.645    3.5521440e-16
 9425.298    3.6633630e-16
 9427.950    3.6176330e-16
 9430.603    3.5906155e-16
 9433.255    3.4841790e-16
 9435.908    3.5238885e-16
 9438.560    3.5635980e-16
 9441.212    3.4689250e-16
 9443.865    3.2574330e-16
 9446.517    3.3130080e-16
 9449.170    3.5604400e-16
 9451.822    3.2382110e-16
 9454.475    3.3926400e-16
 9457.127    3.2108210e-16
 9459.780    3.1395330e-16
 9462.432    3.4979205e-16
 9465.085    3.7104110e-16
 9467.737    3.6032010e-16
 9470.389    3.6091800e-16
 9473.042    3.6061905e-16
 9475.694    3.5143540e-16
 9478.347    3.3275040e-16
 9480.999    3.8413470e-16
 9483.652    3.6516020e-16
 9486.304    3.4030790e-16
 9488.957    3.6144430e-16
 9491.609    3.8236820e-16
 9494.261    3.9413550e-16
 9496.914    3.6058770e-16
 9499.566    3.7147795e-16
 9502.219    3.8280673e-16
 9504.871    3.5659560e-16
 9507.524    3.8048981e-16
 9510.176    3.7933136e-16
 9512.829    3.7817290e-16
 9515.481    3.9006920e-16
 9518.134    3.5807250e-16
 9520.786    3.6565265e-16
 9523.438    3.5690880e-16
 9526.091    3.7323280e-16
 9528.743    3.4954590e-16
 9531.396    3.6084730e-16
 9534.048    3.5742920e-16
 9536.701    3.7064570e-16
 9539.353    3.8847720e-16
 9542.006    3.9050430e-16
 9544.658    3.8044410e-16
 9547.310    3.9145950e-16
 9549.963    3.4691700e-16
 9552.615    3.9586200e-16
 9555.268    3.7671660e-16
 9557.920    3.4881575e-16
 9560.573    3.4739170e-16
 9563.225    3.4334800e-16
 9565.878    3.5023980e-16
 9568.530    3.4856070e-16
 9571.182    3.6162435e-16
 9573.835    3.7300890e-16
 9576.487    3.7310895e-16
 9579.140    3.7315898e-16
 9581.792    3.7318399e-16
 9584.445    3.7320900e-16
 9587.097    3.7720360e-16
 9589.750    3.8671130e-16
 9592.402    3.3315670e-16
 9595.055    3.3018020e-16
 9597.707    3.6000730e-16
