##########################
#
# SN II 199ca spectrum
#
##########################
#
# Reference : Gutierrez et al. 2017, ApJ, 850, 89
# Telescope : Danish 1.54m
# Instrument: DFOSC
# JD        : 2451309.563
#
#  wavelength    flux
#   (angtrom)   
 3408.176    2.1344890e-16
 3410.297    2.8335230e-16
 3412.418    2.3611720e-16
 3414.539    2.2478305e-16
 3416.660    1.9992470e-16
 3418.781    1.8412430e-16
 3420.902    1.8670745e-16
 3423.023    1.6832390e-16
 3425.143    1.7622410e-16
 3427.264    1.8929060e-16
 3429.385    1.7774880e-16
 3431.506    1.5609850e-16
 3433.627    1.7927350e-16
 3435.748    2.0359645e-16
 3437.869    1.9143497e-16
 3439.990    1.8535424e-16
 3442.111    1.8839461e-16
 3444.232    1.8687442e-16
 3446.352    1.8611433e-16
 3448.473    1.5127556e-16
 3450.594    1.6869495e-16
 3452.715    1.7563782e-16
 3454.836    1.7910926e-16
 3456.957    2.0632020e-16
 3459.078    1.8258070e-16
 3461.199    1.9445045e-16
 3463.320    1.5884120e-16
 3465.441    2.1056370e-16
 3467.562    1.7664582e-16
 3469.682    1.4745710e-16
 3471.803    1.9635500e-16
 3473.924    2.1306050e-16
 3476.045    1.8214630e-16
 3478.166    2.2853810e-16
 3480.287    1.9760340e-16
 3482.408    1.9984120e-16
 3484.529    2.3827460e-16
 3486.650    2.1975195e-16
 3488.771    2.0207900e-16
 3490.891    2.4430330e-16
 3493.012    2.3742490e-16
 3495.133    2.3748255e-16
 3497.254    2.3751138e-16
 3499.375    2.3754020e-16
 3501.496    2.2651323e-16
 3503.617    2.1554390e-16
 3505.738    1.9341470e-16
 3507.859    1.7699710e-16
 3509.980    2.0447930e-16
 3512.100    2.1261965e-16
 3514.221    2.3824450e-16
 3516.342    2.2076000e-16
 3518.463    2.3051400e-16
 3520.584    2.5972540e-16
 3522.705    2.1086250e-16
 3524.826    1.6766730e-16
 3526.947    1.7793280e-16
 3529.068    2.0096500e-16
 3531.189    2.4570620e-16
 3533.309    1.7309480e-16
 3535.430    2.1688860e-16
 3537.551    1.9499170e-16
 3539.672    2.0594015e-16
 3541.793    2.3386410e-16
 3543.914    2.8724680e-16
 3546.035    2.7772520e-16
 3548.156    2.5083960e-16
 3550.277    2.6789890e-16
 3552.398    2.8626250e-16
 3554.519    2.9479980e-16
 3556.639    3.0825025e-16
 3558.760    3.2229040e-16
 3560.881    3.2170070e-16
 3563.002    3.3785990e-16
 3565.123    2.8157770e-16
 3567.244    3.0163920e-16
 3569.365    3.1974955e-16
 3571.486    2.7257720e-16
 3573.607    3.6441170e-16
 3575.728    2.9482115e-16
 3577.848    2.8161250e-16
 3579.969    3.3537125e-16
 3582.090    3.0802980e-16
 3584.211    3.6271270e-16
 3586.332    3.4904197e-16
 3588.453    3.1893520e-16
 3590.574    3.7694200e-16
 3592.695    3.7831160e-16
 3594.816    3.6454110e-16
 3596.937    3.3060820e-16
 3599.057    3.6632410e-16
 3601.178    3.9476740e-16
 3603.299    3.7247260e-16
 3605.420    3.3545660e-16
 3607.541    3.2267940e-16
 3609.662    3.3801780e-16
 3611.783    3.3758200e-16
 3613.904    3.3779990e-16
 3616.025    3.3362970e-16
 3618.146    3.3769095e-16
 3620.266    3.3774543e-16
 3622.387    3.9368660e-16
 3624.508    3.1881260e-16
 3626.629    3.8225020e-16
 3628.750    3.4892950e-16
 3630.871    3.6788730e-16
 3632.992    3.1838420e-16
 3635.113    3.8029690e-16
 3637.234    3.7227200e-16
 3639.355    3.4204080e-16
 3641.476    3.4931410e-16
 3643.596    3.4251900e-16
 3645.717    3.5063420e-16
 3647.838    3.4997415e-16
 3649.959    3.5030418e-16
 3652.080    3.7068340e-16
 3654.201    3.5013916e-16
 3656.322    2.9971230e-16
 3658.443    3.1594640e-16
 3660.564    3.5950620e-16
 3662.685    3.3772630e-16
 3664.805    3.4111345e-16
 3666.926    3.3941988e-16
 3669.047    3.0837270e-16
 3671.168    3.4450060e-16
 3673.289    3.1968740e-16
 3675.410    3.0082840e-16
 3677.531    3.2677340e-16
 3679.652    2.7836310e-16
 3681.773    3.2880620e-16
 3683.894    2.7178030e-16
 3686.014    3.1030740e-16
 3688.135    2.9180860e-16
 3690.256    3.3735080e-16
 3692.377    3.5435970e-16
 3694.498    3.5740430e-16
 3696.619    3.4585525e-16
 3698.740    2.6891100e-16
 3700.861    3.1766020e-16
 3702.982    3.6696320e-16
 3705.103    3.4542020e-16
 3707.223    3.5707850e-16
 3709.344    3.4353530e-16
 3711.465    3.2024810e-16
 3713.586    3.4769680e-16
 3715.707    3.9254200e-16
 3717.828    3.8994740e-16
 3719.949    3.8271090e-16
 3722.070    3.7810090e-16
 3724.191    3.8612850e-16
 3726.312    4.6725250e-16
 3728.433    4.4709500e-16
 3730.553    4.4113430e-16
 3732.674    4.4337710e-16
 3734.795    4.9940350e-16
 3736.916    4.6823990e-16
 3739.037    4.7675065e-16
 3741.158    4.8526140e-16
 3743.279    4.8996620e-16
 3745.400    4.3958000e-16
 3747.521    4.6690040e-16
 3749.642    4.9013390e-16
 3751.762    5.3475820e-16
 3753.883    5.5805050e-16
 3756.004    4.9030160e-16
 3758.125    5.2397540e-16
 3760.246    5.1858400e-16
 3762.367    5.1319260e-16
 3764.488    4.9688970e-16
 3766.609    5.3265060e-16
 3768.730    5.6298900e-16
 3770.851    5.2610320e-16
 3772.971    5.4477995e-16
 3775.092    5.0841370e-16
 3777.213    5.8785830e-16
 3779.334    5.5690930e-16
 3781.455    6.0535370e-16
 3783.576    5.1857650e-16
 3785.697    5.5561115e-16
 3787.818    5.5431300e-16
 3789.939    5.4979600e-16
 3792.060    5.5883000e-16
 3794.180    6.2721710e-16
 3796.301    6.2435730e-16
 3798.422    6.3964830e-16
 3800.543    6.4005810e-16
 3802.664    5.7726530e-16
 3804.785    5.7003720e-16
 3806.906    6.1919100e-16
 3809.027    6.0217680e-16
 3811.148    6.2802200e-16
 3813.269    6.2803290e-16
 3815.390    5.5496190e-16
 3817.510    5.7526260e-16
 3819.631    6.0600290e-16
 3821.752    5.5998310e-16
 3823.873    5.9415610e-16
 3825.994    5.3578660e-16
 3828.115    5.4788485e-16
 3830.236    4.8480020e-16
 3832.357    5.7052730e-16
 3834.478    5.1699050e-16
 3836.599    5.0927850e-16
 3838.719    5.2266660e-16
 3840.840    4.9504230e-16
 3842.961    4.9036640e-16
 3845.082    4.5892380e-16
 3847.203    4.8569050e-16
 3849.324    4.6034830e-16
 3851.445    4.4880260e-16
 3853.566    4.0759720e-16
 3855.687    4.0465470e-16
 3857.808    4.6222960e-16
 3859.928    4.3609260e-16
 3862.049    4.3866550e-16
 3864.170    4.0640500e-16
 3866.291    4.4646800e-16
 3868.412    4.6256330e-16
 3870.533    4.2977720e-16
 3872.654    4.1039590e-16
 3874.775    3.9028810e-16
 3876.896    4.0999490e-16
 3879.017    4.1019540e-16
 3881.137    4.4365950e-16
 3883.258    4.6654390e-16
 3885.379    3.9547870e-16
 3887.500    4.2878310e-16
 3889.621    4.4292720e-16
 3891.742    4.5092750e-16
 3893.863    4.3614070e-16
 3895.984    4.6899500e-16
 3898.105    4.5162460e-16
 3900.226    4.5642410e-16
 3902.347    4.1061070e-16
 3904.467    4.0373710e-16
 3906.588    4.5491020e-16
 3908.709    4.5468330e-16
 3910.830    4.0651940e-16
 3912.951    4.3906280e-16
 3915.072    4.5648740e-16
 3917.193    4.3318360e-16
 3919.314    4.6633640e-16
 3921.435    4.4926770e-16
 3923.556    4.7621880e-16
 3925.676    4.8760340e-16
 3927.797    4.9711780e-16
 3929.918    4.9456630e-16
 3932.039    4.6306490e-16
 3934.160    5.0430550e-16
 3936.281    5.6401820e-16
 3938.402    5.3738800e-16
 3940.523    5.5873770e-16
 3942.644    5.4890280e-16
 3944.765    5.8724650e-16
 3946.885    6.3218960e-16
 3949.006    6.2377800e-16
 3951.127    6.6224720e-16
 3953.248    6.2961320e-16
 3955.369    6.4444110e-16
 3957.490    6.3524980e-16
 3959.611    6.4395900e-16
 3961.732    6.5957330e-16
 3963.853    7.1337860e-16
 3965.974    6.9258450e-16
 3968.094    7.0298155e-16
 3970.215    7.1818660e-16
 3972.336    7.2299460e-16
 3974.457    7.9254110e-16
 3976.578    7.7209910e-16
 3978.699    8.2999760e-16
 3980.820    7.9368710e-16
 3982.941    8.3371410e-16
 3985.062    8.3743060e-16
 3987.183    8.5801720e-16
 3989.304    8.7100360e-16
 3991.424    9.0314670e-16
 3993.545    9.2787400e-16
 3995.666    9.3223430e-16
 3997.787    8.9902540e-16
 3999.908    8.9251700e-16
 4002.029    9.1793740e-16
 4004.150    9.2169765e-16
 4006.271    9.2545790e-16
 4008.392    9.5586650e-16
 4010.513    9.5370950e-16
 4012.633    9.6851370e-16
 4014.754    9.8116090e-16
 4016.875    9.9742200e-16
 4018.996    1.0032490e-15
 4021.117    1.0122640e-15
 4023.238    1.0531280e-15
 4025.359    1.0307025e-15
 4027.480    1.0563460e-15
 4029.601    1.0277110e-15
 4031.722    1.0336940e-15
 4033.842    1.0283780e-15
 4035.963    1.0197370e-15
 4038.084    1.0145950e-15
 4040.205    9.9526540e-16
 4042.326    1.0359390e-15
 4044.447    1.0525360e-15
 4046.568    1.0391340e-15
 4048.689    9.7910720e-16
 4050.810    9.6172390e-16
 4052.931    9.2790800e-16
 4055.051    9.4491060e-16
 4057.172    9.1517420e-16
 4059.293    9.3908450e-16
 4061.414    9.4110830e-16
 4063.535    9.4766950e-16
 4065.656    9.4192230e-16
 4067.777    9.6709310e-16
 4069.898    9.7043420e-16
 4072.019    9.5010750e-16
 4074.140    9.2647140e-16
 4076.261    9.4520750e-16
 4078.381    9.2852830e-16
 4080.502    9.0318010e-16
 4082.623    8.9451510e-16
 4084.744    8.8321280e-16
 4086.865    8.9860660e-16
 4088.986    8.6374350e-16
 4091.107    8.4577090e-16
 4093.228    8.9046130e-16
 4095.349    8.6876610e-16
 4097.470    8.0472640e-16
 4099.590    7.8170380e-16
 4101.711    8.2038980e-16
 4103.832    8.3689610e-16
 4105.953    8.0845260e-16
 4108.074    7.9507700e-16
 4110.195    7.5395770e-16
 4112.316    7.6647030e-16
 4114.437    8.0377220e-16
 4116.558    7.8784310e-16
 4118.679    8.0259040e-16
 4120.799    8.4434300e-16
 4122.920    8.3356970e-16
 4125.041    8.3171990e-16
 4127.162    8.2884820e-16
 4129.283    8.0272510e-16
 4131.404    8.3452490e-16
 4133.525    8.4687030e-16
 4135.646    8.3205420e-16
 4137.767    8.3786490e-16
 4139.888    8.7938190e-16
 4142.008    8.6987810e-16
 4144.129    8.5978750e-16
 4146.250    8.6220220e-16
 4148.371    8.4904110e-16
 4150.492    8.1155360e-16
 4152.613    8.6918780e-16
 4154.734    8.9175270e-16
 4156.855    8.9916890e-16
 4158.976    8.7091430e-16
 4161.097    8.4269900e-16
 4163.218    8.4138090e-16
 4165.338    8.6810920e-16
 4167.459    8.7248080e-16
 4169.580    8.3184550e-16
 4171.701    8.5359700e-16
 4173.822    8.6208200e-16
 4175.943    8.5316530e-16
 4178.064    8.3145590e-16
 4180.185    7.9141430e-16
 4182.306    7.9305120e-16
 4184.427    8.3161040e-16
 4186.547    8.3270270e-16
 4188.668    7.8544090e-16
 4190.789    8.1273390e-16
 4192.910    8.1270320e-16
 4195.031    7.6990660e-16
 4197.152    8.1995260e-16
 4199.273    7.6376090e-16
 4201.394    7.9194940e-16
 4203.515    7.9587550e-16
 4205.636    7.4556880e-16
 4207.756    7.2765420e-16
 4209.877    7.1904720e-16
 4211.998    7.5213740e-16
 4214.119    7.0646300e-16
 4216.240    6.8473100e-16
 4218.361    6.8805800e-16
 4220.482    6.8002180e-16
 4222.603    6.4841200e-16
 4224.724    6.3331190e-16
 4226.845    6.2450410e-16
 4228.965    5.9859510e-16
 4231.086    5.8129670e-16
 4233.207    5.8095240e-16
 4235.328    5.6181020e-16
 4237.449    5.0711620e-16
 4239.570    5.1936010e-16
 4241.691    4.9590560e-16
 4243.812    4.9291350e-16
 4245.933    4.7728860e-16
 4248.054    4.6568420e-16
 4250.175    4.4487180e-16
 4252.295    4.6885130e-16
 4254.416    5.1964320e-16
 4256.537    5.2335580e-16
 4258.658    4.9054840e-16
 4260.779    4.8110040e-16
 4262.900    5.1020730e-16
 4265.021    4.9797470e-16
 4267.142    4.9651260e-16
 4269.263    5.3342200e-16
 4271.384    5.4687240e-16
 4273.504    5.1687220e-16
 4275.625    5.2385760e-16
 4277.746    5.1521310e-16
 4279.867    5.1259240e-16
 4281.988    5.4256740e-16
 4284.109    5.3377970e-16
 4286.230    5.5677390e-16
 4288.351    5.7820660e-16
 4290.472    5.8581290e-16
 4292.593    6.1227560e-16
 4294.713    5.7875080e-16
 4296.834    6.1471570e-16
 4298.955    6.3492890e-16
 4301.076    5.9974170e-16
 4303.197    6.4511990e-16
 4305.318    6.1255410e-16
 4307.439    6.2349860e-16
 4309.560    6.2502320e-16
 4311.681    5.8003030e-16
 4313.802    5.8567220e-16
 4315.922    5.9069430e-16
 4318.043    6.0195960e-16
 4320.164    6.1887500e-16
 4322.285    6.5114430e-16
 4324.406    6.5647680e-16
 4326.527    6.1992430e-16
 4328.648    6.3115340e-16
 4330.769    6.4047940e-16
 4332.890    6.1618920e-16
 4335.011    6.6264390e-16
 4337.132    6.5275800e-16
 4339.252    6.1714160e-16
 4341.373    6.2827920e-16
 4343.494    6.5670140e-16
 4345.615    6.3295090e-16
 4347.736    6.5938920e-16
 4349.857    6.8300030e-16
 4351.978    6.4798910e-16
 4354.099    6.8219320e-16
 4356.220    6.9537570e-16
 4358.341    6.7556990e-16
 4360.461    7.0935270e-16
 4362.582    7.2997550e-16
 4364.703    7.2520900e-16
 4366.824    7.4615250e-16
 4368.945    7.5803470e-16
 4371.066    6.9465750e-16
 4373.187    7.1459700e-16
 4375.308    7.2431850e-16
 4377.429    7.1001030e-16
 4379.550    6.9832290e-16
 4381.670    7.2808500e-16
 4383.791    7.5851650e-16
 4385.912    7.4013060e-16
 4388.033    6.9672170e-16
 4390.154    7.0548590e-16
 4392.275    7.0560350e-16
 4394.396    7.7422500e-16
 4396.517    7.5659070e-16
 4398.638    7.2877470e-16
 4400.759    7.2842040e-16
 4402.879    7.4058380e-16
 4405.000    7.3010670e-16
 4407.121    7.3775440e-16
 4409.242    7.5996090e-16
 4411.363    7.8114160e-16
 4413.484    7.8046480e-16
 4415.605    7.6913990e-16
 4417.726    7.5758930e-16
 4419.847    7.7491910e-16
 4421.968    7.8085930e-16
 4424.089    7.4692130e-16
 4426.209    7.4033210e-16
 4428.330    7.5287570e-16
 4430.451    7.5967900e-16
 4432.572    7.3008780e-16
 4434.693    6.9297440e-16
 4436.814    7.2020330e-16
 4438.935    7.1217640e-16
 4441.056    7.1978530e-16
 4443.177    6.9639060e-16
 4445.298    7.1426320e-16
 4447.418    6.7811060e-16
 4449.539    6.5849780e-16
 4451.660    7.2004110e-16
 4453.781    6.3290770e-16
 4455.902    6.3546790e-16
 4458.023    6.6827840e-16
 4460.144    6.5811930e-16
 4462.265    6.5569040e-16
 4464.386    6.4889640e-16
 4466.507    6.3253760e-16
 4468.627    6.4852340e-16
 4470.748    6.4082780e-16
 4472.869    6.0591310e-16
 4474.990    6.0210360e-16
 4477.111    6.0131760e-16
 4479.232    6.1664190e-16
 4481.353    6.1512830e-16
 4483.474    6.0777030e-16
 4485.595    5.8951320e-16
 4487.716    5.6164470e-16
 4489.836    6.0542000e-16
 4491.957    5.8180710e-16
 4494.078    5.9271710e-16
 4496.199    6.2040070e-16
 4498.320    5.7306150e-16
 4500.441    5.9641770e-16
 4502.562    6.0253740e-16
 4504.683    6.1966860e-16
 4506.804    6.2628890e-16
 4508.925    6.1654430e-16
 4511.046    6.2443750e-16
 4513.166    6.6009190e-16
 4515.287    6.3338890e-16
 4517.408    6.4983650e-16
 4519.529    7.1683100e-16
 4521.650    7.3556960e-16
 4523.771    7.4527520e-16
 4525.892    7.5256200e-16
 4528.013    8.0777930e-16
 4530.134    8.3088380e-16
 4532.255    8.4426130e-16
 4534.375    8.8561920e-16
 4536.496    9.0625510e-16
 4538.617    9.3372250e-16
 4540.738    9.5368760e-16
 4542.859    9.6911690e-16
 4544.980    9.4320800e-16
 4547.101    9.8954350e-16
 4549.222    1.0142980e-15
 4551.343    1.0354160e-15
 4553.464    1.0466800e-15
 4555.584    1.0122810e-15
 4557.705    1.0345550e-15
 4559.826    1.0188320e-15
 4561.947    1.0168270e-15
 4564.068    1.0501030e-15
 4566.189    1.0905350e-15
 4568.310    1.1212930e-15
 4570.431    1.1401580e-15
 4572.552    1.0745600e-15
 4574.673    1.0619020e-15
 4576.793    1.1055640e-15
 4578.914    1.1515590e-15
 4581.035    1.1749550e-15
 4583.156    1.1466830e-15
 4585.277    1.1275740e-15
 4587.398    1.1545840e-15
 4589.519    1.2003770e-15
 4591.640    1.1834520e-15
 4593.761    1.1819690e-15
 4595.882    1.1826550e-15
 4598.003    1.1830535e-15
 4600.123    1.1823120e-15
 4602.244    1.2052375e-15
 4604.365    1.2278200e-15
 4606.486    1.2417630e-15
 4608.607    1.2951830e-15
 4610.728    1.3059290e-15
 4612.849    1.3404100e-15
 4614.970    1.3774440e-15
 4617.091    1.3583510e-15
 4619.212    1.3675510e-15
 4621.332    1.3935910e-15
 4623.453    1.4081460e-15
 4625.574    1.3878330e-15
 4627.695    1.3650430e-15
 4629.816    1.3847110e-15
 4631.937    1.3963280e-15
 4634.058    1.4317220e-15
 4636.179    1.4210850e-15
 4638.300    1.4002550e-15
 4640.421    1.3704970e-15
 4642.541    1.3793490e-15
 4644.662    1.4071040e-15
 4646.783    1.3995010e-15
 4648.904    1.3962740e-15
 4651.025    1.4180640e-15
 4653.146    1.4162480e-15
 4655.267    1.3716580e-15
 4657.388    1.3925850e-15
 4659.509    1.4304240e-15
 4661.630    1.4213110e-15
 4663.750    1.4132250e-15
 4665.871    1.4149780e-15
 4667.992    1.4163020e-15
 4670.113    1.4004680e-15
 4672.234    1.3578730e-15
 4674.355    1.3329520e-15
 4676.476    1.3290320e-15
 4678.597    1.3383360e-15
 4680.718    1.3218160e-15
 4682.839    1.3314610e-15
 4684.960    1.3028040e-15
 4687.080    1.2643420e-15
 4689.201    1.2476520e-15
 4691.322    1.2450220e-15
 4693.443    1.1931400e-15
 4695.564    1.1956730e-15
 4697.685    1.1800780e-15
 4699.806    1.1680890e-15
 4701.927    1.1736640e-15
 4704.048    1.1583770e-15
 4706.169    1.1291870e-15
 4708.289    1.1120870e-15
 4710.410    1.0919700e-15
 4712.531    1.0967000e-15
 4714.652    1.0952220e-15
 4716.773    1.0954420e-15
 4718.894    1.1241820e-15
 4721.015    1.0990190e-15
 4723.136    1.0487690e-15
 4725.257    1.0616280e-15
 4727.378    1.0682220e-15
 4729.498    1.0721130e-15
 4731.619    1.0899500e-15
 4733.740    1.0481020e-15
 4735.861    1.0378690e-15
 4737.982    1.0579470e-15
 4740.103    1.0159920e-15
 4742.224    9.6944910e-16
 4744.345    9.9489250e-16
 4746.466    9.9630700e-16
 4748.587    9.6077300e-16
 4750.707    9.8775730e-16
 4752.828    9.6107840e-16
 4754.949    9.4793250e-16
 4757.070    9.1796780e-16
 4759.191    8.7729190e-16
 4761.312    8.7372730e-16
 4763.433    8.4313300e-16
 4765.554    8.7422590e-16
 4767.675    8.5857670e-16
 4769.796    8.5528530e-16
 4771.917    8.8031420e-16
 4774.037    8.5677000e-16
 4776.158    8.2664720e-16
 4778.279    8.3362080e-16
 4780.400    8.2462020e-16
 4782.521    7.7916800e-16
 4784.642    7.6720030e-16
 4786.763    7.8991910e-16
 4788.884    7.6037930e-16
 4791.005    7.8034740e-16
 4793.126    8.0988780e-16
 4795.246    7.6143460e-16
 4797.367    7.7737500e-16
 4799.488    7.8586630e-16
 4801.609    8.2977320e-16
 4803.730    8.2428680e-16
 4805.851    8.4493030e-16
 4807.972    8.7592610e-16
 4810.093    8.8958480e-16
 4812.214    9.0393440e-16
 4814.335    9.3014020e-16
 4816.455    9.8815870e-16
 4818.576    1.0246780e-15
 4820.697    1.0324150e-15
 4822.818    1.0389090e-15
 4824.939    1.1035530e-15
 4827.060    1.1132080e-15
 4829.181    1.1152210e-15
 4831.302    1.1172340e-15
 4833.423    1.1563150e-15
 4835.544    1.1354095e-15
 4837.664    1.1426890e-15
 4839.785    1.1120320e-15
 4841.906    1.1281300e-15
 4844.027    1.1463940e-15
 4846.148    1.1569410e-15
 4848.269    1.1520360e-15
 4850.390    1.1282370e-15
 4852.511    1.1380390e-15
 4854.632    1.1361160e-15
 4856.753    1.1535150e-15
 4858.874    1.1851630e-15
 4860.994    1.1963860e-15
 4863.115    1.2134100e-15
 4865.236    1.2281950e-15
 4867.357    1.2433580e-15
 4869.478    1.3142080e-15
 4871.599    1.3668230e-15
 4873.720    1.3262800e-15
 4875.841    1.3366830e-15
 4877.962    1.3935080e-15
 4880.083    1.3905120e-15
 4882.203    1.4105050e-15
 4884.324    1.4657660e-15
 4886.445    1.5076280e-15
 4888.566    1.5053200e-15
 4890.687    1.5155430e-15
 4892.808    1.5475880e-15
 4894.929    1.5642290e-15
 4897.050    1.5552640e-15
 4899.171    1.5179750e-15
 4901.292    1.5561510e-15
 4903.412    1.5673040e-15
 4905.533    1.5606490e-15
 4907.654    1.5941060e-15
 4909.775    1.5783520e-15
 4911.896    1.5413380e-15
 4914.017    1.5420140e-15
 4916.138    1.5031500e-15
 4918.259    1.4617110e-15
 4920.380    1.4406000e-15
 4922.501    1.4386260e-15
 4924.621    1.4140460e-15
 4926.742    1.3511490e-15
 4928.863    1.3558790e-15
 4930.984    1.3370340e-15
 4933.105    1.3094630e-15
 4935.226    1.3081480e-15
 4937.347    1.2854890e-15
 4939.468    1.2291870e-15
 4941.589    1.1761640e-15
 4943.710    1.1494610e-15
 4945.831    1.1399930e-15
 4947.951    1.1294380e-15
 4950.072    1.1203400e-15
 4952.193    1.1578020e-15
 4954.314    1.1397430e-15
 4956.435    1.1422150e-15
 4958.556    1.1688860e-15
 4960.677    1.1886380e-15
 4962.798    1.2071970e-15
 4964.919    1.2346910e-15
 4967.040    1.2713300e-15
 4969.160    1.2717100e-15
 4971.281    1.2836640e-15
 4973.402    1.3312170e-15
 4975.523    1.3132190e-15
 4977.644    1.3264370e-15
 4979.765    1.3354080e-15
 4981.886    1.3779340e-15
 4984.007    1.4000110e-15
 4986.128    1.3781055e-15
 4988.249    1.3781912e-15
 4990.369    1.3782770e-15
 4992.490    1.3441620e-15
 4994.611    1.3932870e-15
 4996.732    1.3993750e-15
 4998.853    1.3591980e-15
 5000.974    1.3695640e-15
 5003.095    1.3463830e-15
 5005.216    1.3617260e-15
 5007.337    1.3749280e-15
 5009.458    1.3450660e-15
 5011.578    1.3744225e-15
 5013.699    1.3739170e-15
 5015.820    1.4232210e-15
 5017.941    1.4203500e-15
 5020.062    1.4234080e-15
 5022.183    1.4382610e-15
 5024.304    1.4576680e-15
 5026.425    1.4554830e-15
 5028.546    1.4309480e-15
 5030.667    1.4144730e-15
 5032.788    1.3735380e-15
 5034.908    1.3737550e-15
 5037.029    1.3709310e-15
 5039.150    1.3571570e-15
 5041.271    1.3607440e-15
 5043.392    1.3615650e-15
 5045.513    1.3151250e-15
 5047.634    1.2925060e-15
 5049.755    1.2645130e-15
 5051.876    1.2003550e-15
 5053.997    1.1761720e-15
 5056.117    1.1790300e-15
 5058.238    1.1563920e-15
 5060.359    1.1676980e-15
 5062.480    1.1686090e-15
 5064.601    1.1055530e-15
 5066.722    1.1223880e-15
 5068.843    1.0871630e-15
 5070.964    1.0823570e-15
 5073.085    1.0642790e-15
 5075.206    1.0129520e-15
 5077.326    1.0004990e-15
 5079.447    9.8709300e-16
 5081.568    9.5875050e-16
 5083.689    9.3198970e-16
 5085.810    8.9281680e-16
 5087.931    8.9735980e-16
 5090.052    8.7462260e-16
 5092.173    8.3968310e-16
 5094.294    8.6075550e-16
 5096.415    8.6791700e-16
 5098.535    8.5428820e-16
 5100.656    8.3229170e-16
 5102.777    8.1751320e-16
 5104.898    7.8533310e-16
 5107.019    8.1071480e-16
 5109.140    8.3947050e-16
 5111.261    7.9825420e-16
 5113.382    8.1288680e-16
 5115.503    8.2598510e-16
 5117.624    8.4109930e-16
 5119.745    8.0269090e-16
 5121.865    8.0294120e-16
 5123.986    7.9031510e-16
 5126.107    8.4222480e-16
 5128.228    8.6205650e-16
 5130.349    8.7879460e-16
 5132.470    8.8349000e-16
 5134.591    8.9276400e-16
 5136.712    8.8812700e-16
 5138.833    9.1063390e-16
 5140.954    8.8276550e-16
 5143.074    8.9402670e-16
 5145.195    8.8949850e-16
 5147.316    8.6978390e-16
 5149.437    8.8246760e-16
 5151.558    9.6489960e-16
 5153.679    9.6582870e-16
 5155.800    9.5278270e-16
 5157.921    9.4101390e-16
 5160.042    9.4222880e-16
 5162.163    9.7152500e-16
 5164.283    9.7159510e-16
 5166.404    9.9356900e-16
 5168.525    1.0170190e-15
 5170.646    1.0596500e-15
 5172.767    1.0174110e-15
 5174.888    1.0553980e-15
 5177.009    1.0700130e-15
 5179.130    1.0509370e-15
 5181.251    1.0515560e-15
 5183.372    1.0563460e-15
 5185.492    1.0650920e-15
 5187.613    1.0919620e-15
 5189.734    1.1195590e-15
 5191.855    1.1259660e-15
 5193.976    1.1123620e-15
 5196.097    1.1356940e-15
 5198.218    1.1357350e-15
 5200.339    1.1450200e-15
 5202.460    1.1193260e-15
 5204.581    1.1215900e-15
 5206.702    1.1702690e-15
 5208.822    1.1813690e-15
 5210.943    1.1765090e-15
 5213.064    1.1880830e-15
 5215.185    1.1858660e-15
 5217.306    1.2123470e-15
 5219.427    1.2354790e-15
 5221.548    1.2288090e-15
 5223.669    1.2086350e-15
 5225.790    1.2117190e-15
 5227.911    1.1908060e-15
 5230.031    1.1672170e-15
 5232.152    1.1741570e-15
 5234.273    1.1688460e-15
 5236.394    1.1518690e-15
 5238.515    1.1487020e-15
 5240.636    1.1471130e-15
 5242.757    1.1541320e-15
 5244.878    1.1214560e-15
 5246.999    1.1019160e-15
 5249.120    1.0849480e-15
 5251.240    1.1450160e-15
 5253.361    1.1426400e-15
 5255.482    1.1151390e-15
 5257.603    1.1533420e-15
 5259.724    1.1471190e-15
 5261.845    1.1064620e-15
 5263.966    1.1436670e-15
 5266.087    1.1767650e-15
 5268.208    1.1931940e-15
 5270.329    1.1821270e-15
 5272.449    1.1645180e-15
 5274.570    1.2161400e-15
 5276.691    1.2451570e-15
 5278.812    1.2238440e-15
 5280.933    1.2025260e-15
 5283.054    1.2267090e-15
 5285.175    1.2482340e-15
 5287.296    1.2405350e-15
 5289.417    1.2431000e-15
 5291.538    1.2314690e-15
 5293.659    1.2654630e-15
 5295.779    1.2612860e-15
 5297.900    1.2589950e-15
 5300.021    1.2684890e-15
 5302.142    1.2394210e-15
 5304.263    1.2349200e-15
 5306.384    1.2494920e-15
 5308.505    1.2655080e-15
 5310.626    1.2846710e-15
 5312.747    1.2790340e-15
 5314.868    1.2953060e-15
 5316.988    1.3101530e-15
 5319.109    1.2974430e-15
 5321.230    1.3216300e-15
 5323.351    1.3182850e-15
 5325.472    1.3262190e-15
 5327.593    1.3365800e-15
 5329.714    1.3496270e-15
 5331.835    1.3250510e-15
 5333.956    1.2830700e-15
 5336.077    1.2985710e-15
 5338.197    1.3037520e-15
 5340.318    1.3279670e-15
 5342.439    1.3298190e-15
 5344.560    1.3238000e-15
 5346.681    1.3311030e-15
 5348.802    1.3127370e-15
 5350.923    1.3138270e-15
 5353.044    1.3411590e-15
 5355.165    1.3447980e-15
 5357.286    1.3389610e-15
 5359.406    1.3556260e-15
 5361.527    1.3671180e-15
 5363.648    1.3858260e-15
 5365.769    1.4077990e-15
 5367.890    1.4216660e-15
 5370.011    1.4132560e-15
 5372.132    1.4072460e-15
 5374.253    1.4137030e-15
 5376.374    1.4310820e-15
 5378.495    1.4430520e-15
 5380.616    1.4398220e-15
 5382.736    1.4298850e-15
 5384.857    1.4352830e-15
 5386.978    1.4420480e-15
 5389.099    1.4343660e-15
 5391.220    1.4278830e-15
 5393.341    1.4098200e-15
 5395.462    1.4145190e-15
 5397.583    1.4109920e-15
 5399.704    1.3891400e-15
 5401.825    1.3891760e-15
 5403.945    1.4045460e-15
 5406.066    1.3927290e-15
 5408.187    1.3690790e-15
 5410.308    1.3597940e-15
 5412.429    1.3499250e-15
 5414.550    1.3487550e-15
 5416.671    1.3308290e-15
 5418.792    1.3102680e-15
 5420.913    1.3151420e-15
 5423.034    1.3000530e-15
 5425.154    1.2870760e-15
 5427.275    1.2882470e-15
 5429.396    1.2693850e-15
 5431.517    1.2839090e-15
 5433.638    1.2790000e-15
 5435.759    1.2515940e-15
 5437.880    1.2405200e-15
 5440.001    1.2507190e-15
 5442.122    1.2350070e-15
 5444.243    1.2145000e-15
 5446.363    1.2189080e-15
 5448.484    1.2167820e-15
 5450.605    1.2121810e-15
 5452.726    1.2241250e-15
 5454.847    1.2434210e-15
 5456.968    1.2526730e-15
 5459.089    1.2491630e-15
 5461.210    1.2579500e-15
 5463.331    1.2506660e-15
 5465.452    1.2593200e-15
 5467.573    1.2895870e-15
 5469.693    1.3098040e-15
 5471.814    1.3277240e-15
 5473.935    1.3298770e-15
 5476.056    1.3384350e-15
 5478.177    1.3724370e-15
 5480.298    1.3869750e-15
 5482.419    1.3940950e-15
 5484.540    1.4215480e-15
 5486.661    1.4220950e-15
 5488.782    1.4171010e-15
 5490.902    1.4249370e-15
 5493.023    1.4203940e-15
 5495.144    1.4264000e-15
 5497.265    1.4420250e-15
 5499.386    1.4385990e-15
 5501.507    1.4309470e-15
 5503.628    1.4476160e-15
 5505.749    1.4236870e-15
 5507.870    1.4383200e-15
 5509.991    1.4490790e-15
 5512.111    1.4376590e-15
 5514.232    1.4573340e-15
 5516.353    1.4580620e-15
 5518.474    1.4457420e-15
 5520.595    1.4442620e-15
 5522.716    1.4338360e-15
 5524.837    1.4240560e-15
 5526.958    1.4318560e-15
 5529.079    1.4251600e-15
 5531.200    1.4243620e-15
 5533.320    1.4258980e-15
 5535.441    1.4126860e-15
 5537.562    1.3889640e-15
 5539.683    1.3728460e-15
 5541.804    1.3745510e-15
 5543.925    1.3760310e-15
 5546.046    1.3761330e-15
 5548.167    1.3589800e-15
 5550.288    1.3365230e-15
 5552.409    1.3237300e-15
 5554.530    1.3104020e-15
 5556.650    1.3037230e-15
 5558.771    1.2938510e-15
 5560.892    1.2550110e-15
 5563.013    1.2352330e-15
 5565.134    1.2173360e-15
 5567.255    1.1952890e-15
 5569.376    1.1893000e-15
 5571.497    1.1745890e-15
 5573.618    1.1774420e-15
 5575.739    1.1750740e-15
 5577.859    1.1656900e-15
 5579.980    1.1636960e-15
 5582.101    1.1443810e-15
 5584.222    1.1321740e-15
 5586.343    1.1235050e-15
 5588.464    1.1551540e-15
 5590.585    1.1435610e-15
 5592.706    1.1300270e-15
 5594.827    1.1460980e-15
 5596.948    1.1691310e-15
 5599.068    1.1886920e-15
 5601.189    1.1950490e-15
 5603.310    1.2097690e-15
 5605.431    1.2231910e-15
 5607.552    1.2215980e-15
 5609.673    1.2110860e-15
 5611.794    1.2152060e-15
 5613.915    1.2231030e-15
 5616.036    1.2507450e-15
 5618.157    1.2687350e-15
 5620.277    1.2856780e-15
 5622.398    1.3069110e-15
 5624.519    1.2967700e-15
 5626.640    1.3092340e-15
 5628.761    1.2977570e-15
 5630.882    1.3088810e-15
 5633.003    1.3168170e-15
 5635.124    1.3225140e-15
 5637.245    1.3310240e-15
 5639.366    1.3252760e-15
 5641.486    1.3027900e-15
 5643.607    1.3007250e-15
 5645.728    1.3361710e-15
 5647.849    1.3531280e-15
 5649.970    1.3108170e-15
 5652.091    1.3247000e-15
 5654.212    1.3207890e-15
 5656.333    1.3311730e-15
 5658.454    1.3324390e-15
 5660.575    1.3275850e-15
 5662.696    1.3294820e-15
 5664.816    1.3242620e-15
 5666.937    1.3312780e-15
 5669.058    1.3301660e-15
 5671.179    1.3385800e-15
 5673.300    1.3236510e-15
 5675.421    1.3233820e-15
 5677.542    1.3245040e-15
 5679.663    1.3203580e-15
 5681.784    1.3101280e-15
 5683.905    1.2935760e-15
 5686.025    1.2841460e-15
 5688.146    1.2837870e-15
 5690.267    1.2901470e-15
 5692.388    1.3110860e-15
 5694.509    1.3088270e-15
 5696.630    1.3197600e-15
 5698.751    1.2954320e-15
 5700.872    1.2701620e-15
 5702.993    1.2916240e-15
 5705.114    1.2984940e-15
 5707.234    1.2852090e-15
 5709.355    1.2828810e-15
 5711.476    1.2762970e-15
 5713.597    1.2473920e-15
 5715.718    1.2236230e-15
 5717.839    1.2240530e-15
 5719.960    1.2407460e-15
 5722.081    1.2490190e-15
 5724.202    1.2490720e-15
 5726.323    1.2441050e-15
 5728.443    1.2325940e-15
 5730.564    1.2213610e-15
 5732.685    1.2339170e-15
 5734.806    1.2206300e-15
 5736.927    1.2015710e-15
 5739.048    1.1811530e-15
 5741.169    1.1764300e-15
 5743.290    1.1855730e-15
 5745.411    1.1965140e-15
 5747.532    1.1967070e-15
 5749.653    1.1568970e-15
 5751.773    1.1157940e-15
 5753.894    1.1225680e-15
 5756.015    1.1050310e-15
 5758.136    1.0968910e-15
 5760.257    1.1180990e-15
 5762.378    1.1228960e-15
 5764.499    1.1163000e-15
 5766.620    1.1175320e-15
 5768.741    1.0950180e-15
 5770.862    1.0742290e-15
 5772.982    1.0777110e-15
 5775.103    1.0590810e-15
 5777.224    1.0445330e-15
 5779.345    1.0288370e-15
 5781.466    1.0177560e-15
 5783.587    1.0195810e-15
 5785.708    1.0227550e-15
 5787.829    1.0197810e-15
 5789.950    1.0005410e-15
 5792.071    1.0227030e-15
 5794.191    1.0233050e-15
 5796.312    9.9330450e-16
 5798.433    9.7893480e-16
 5800.554    9.8590610e-16
 5802.675    9.8728680e-16
 5804.796    9.8690680e-16
 5806.917    9.9996930e-16
 5809.038    9.9545410e-16
 5811.159    9.7766360e-16
 5813.280    9.9144980e-16
 5815.400    1.0186600e-15
 5817.521    1.0350490e-15
 5819.642    1.0530010e-15
 5821.763    1.0693020e-15
 5823.884    1.0722610e-15
 5826.005    1.0803960e-15
 5828.126    1.0902140e-15
 5830.247    1.0837170e-15
 5832.368    1.1135700e-15
 5834.489    1.1301160e-15
 5836.610    1.1207200e-15
 5838.730    1.1240590e-15
 5840.851    1.1507090e-15
 5842.972    1.1744420e-15
 5845.093    1.1819920e-15
 5847.214    1.1855450e-15
 5849.335    1.1907210e-15
 5851.456    1.2126620e-15
 5853.577    1.1969620e-15
 5855.698    1.2136690e-15
 5857.819    1.2104110e-15
 5859.939    1.2107870e-15
 5862.060    1.2252020e-15
 5864.181    1.2302730e-15
 5866.302    1.2251140e-15
 5868.423    1.2316970e-15
 5870.544    1.2576390e-15
 5872.665    1.2602560e-15
 5874.786    1.2369170e-15
 5876.907    1.2476606e-15
 5879.028    1.2408704e-15
 5881.148    1.2323155e-15
 5883.269    1.2451618e-15
 5885.390    1.2394228e-15
 5887.511    1.2574377e-15
 5889.632    1.2438345e-15
 5891.753    1.2209015e-15
 5893.874    1.2498113e-15
 5895.995    1.2292999e-15
 5898.116    1.2341269e-15
 5900.237    1.2354749e-15
 5902.357    1.2451232e-15
 5904.478    1.2246163e-15
 5906.599    1.2265891e-15
 5908.720    1.2361669e-15
 5910.841    1.2341621e-15
 5912.962    1.2341543e-15
 5915.083    1.2318040e-15
 5917.204    1.2498850e-15
 5919.325    1.2301920e-15
 5921.446    1.2212610e-15
 5923.567    1.2361790e-15
 5925.687    1.2259430e-15
 5927.808    1.2255910e-15
 5929.929    1.2191710e-15
 5932.050    1.2390230e-15
 5934.171    1.2463870e-15
 5936.292    1.2379000e-15
 5938.413    1.2345373e-15
 5940.534    1.2460629e-15
 5942.655    1.2405201e-15
 5944.776    1.2480078e-15
 5946.896    1.2450695e-15
 5949.017    1.2572531e-15
 5951.138    1.2242830e-15
 5953.259    1.2269036e-15
 5955.380    1.2392012e-15
 5957.501    1.2278139e-15
 5959.622    1.2110168e-15
 5961.743    1.2348573e-15
 5963.864    1.2231310e-15
 5965.985    1.2208740e-15
 5968.105    1.2113190e-15
 5970.226    1.2309210e-15
 5972.347    1.2331800e-15
 5974.468    1.2125090e-15
 5976.589    1.2108920e-15
 5978.710    1.2256480e-15
 5980.831    1.2331430e-15
 5982.952    1.2290010e-15
 5985.073    1.2307090e-15
 5987.194    1.2298520e-15
 5989.314    1.2386320e-15
 5991.435    1.2266400e-15
 5993.556    1.2063970e-15
 5995.677    1.2083710e-15
 5997.798    1.2115300e-15
 5999.919    1.1983270e-15
 6002.040    1.1996320e-15
 6004.161    1.1976010e-15
 6006.282    1.1787340e-15
 6008.403    1.1696610e-15
 6010.524    1.1714930e-15
 6012.644    1.1915840e-15
 6014.765    1.1930920e-15
 6016.886    1.1832650e-15
 6019.007    1.1952260e-15
 6021.128    1.1705890e-15
 6023.249    1.1688540e-15
 6025.370    1.1867280e-15
 6027.491    1.1782790e-15
 6029.612    1.1721390e-15
 6031.733    1.1754300e-15
 6033.853    1.1559160e-15
 6035.974    1.1490870e-15
 6038.095    1.1730780e-15
 6040.216    1.1575740e-15
 6042.337    1.1530670e-15
 6044.458    1.1578420e-15
 6046.579    1.1656250e-15
 6048.700    1.1423990e-15
 6050.821    1.1235550e-15
 6052.942    1.1205280e-15
 6055.062    1.1164180e-15
 6057.183    1.1370030e-15
 6059.304    1.1365060e-15
 6061.425    1.1444610e-15
 6063.546    1.1382460e-15
 6065.667    1.1239660e-15
 6067.788    1.1218740e-15
 6069.909    1.1308270e-15
 6072.030    1.1239300e-15
 6074.151    1.1063150e-15
 6076.271    1.1232300e-15
 6078.392    1.1393530e-15
 6080.513    1.1266580e-15
 6082.634    1.1242790e-15
 6084.755    1.1322010e-15
 6086.876    1.1355530e-15
 6088.997    1.1414280e-15
 6091.118    1.1463280e-15
 6093.239    1.1349440e-15
 6095.360    1.1597620e-15
 6097.481    1.1859290e-15
 6099.601    1.1695680e-15
 6101.722    1.1615990e-15
 6103.843    1.1584330e-15
 6105.964    1.1535880e-15
 6108.085    1.1668700e-15
 6110.206    1.1816010e-15
 6112.327    1.1745960e-15
 6114.448    1.1670450e-15
 6116.569    1.1602830e-15
 6118.690    1.1704010e-15
 6120.810    1.1906740e-15
 6122.931    1.1686550e-15
 6125.052    1.1484720e-15
 6127.173    1.1628890e-15
 6129.294    1.1423790e-15
 6131.415    1.1234990e-15
 6133.536    1.1313890e-15
 6135.657    1.1304190e-15
 6137.778    1.1252130e-15
 6139.899    1.1104730e-15
 6142.019    1.1029300e-15
 6144.140    1.0962950e-15
 6146.261    1.0796500e-15
 6148.382    1.0852540e-15
 6150.503    1.0805400e-15
 6152.624    1.0492490e-15
 6154.745    1.0410900e-15
 6156.866    1.0429900e-15
 6158.987    1.0414590e-15
 6161.108    1.0305220e-15
 6163.228    1.0325440e-15
 6165.349    1.0586970e-15
 6167.470    1.0452440e-15
 6169.591    1.0366630e-15
 6171.712    1.0416280e-15
 6173.833    1.0490400e-15
 6175.954    1.0720950e-15
 6178.075    1.0907690e-15
 6180.196    1.0836220e-15
 6182.317    1.0786590e-15
 6184.438    1.0853480e-15
 6186.558    1.0813080e-15
 6188.679    1.1019310e-15
 6190.800    1.1099120e-15
 6192.921    1.1065230e-15
 6195.042    1.1053960e-15
 6197.163    1.1096500e-15
 6199.284    1.1190220e-15
 6201.405    1.1360650e-15
 6203.526    1.1495840e-15
 6205.647    1.1352750e-15
 6207.767    1.1276000e-15
 6209.888    1.1462980e-15
 6212.009    1.1509480e-15
 6214.130    1.1404140e-15
 6216.251    1.1404590e-15
 6218.372    1.1348840e-15
 6220.493    1.1396130e-15
 6222.614    1.1597050e-15
 6224.735    1.1631590e-15
 6226.856    1.1499810e-15
 6228.976    1.1618690e-15
 6231.097    1.1586660e-15
 6233.218    1.1423040e-15
 6235.339    1.1530400e-15
 6237.460    1.1540640e-15
 6239.581    1.1460100e-15
 6241.702    1.1573680e-15
 6243.823    1.1569570e-15
 6245.944    1.1449510e-15
 6248.065    1.1314550e-15
 6250.185    1.1227090e-15
 6252.306    1.1236900e-15
 6254.427    1.1277540e-15
 6256.548    1.0969300e-15
 6258.669    1.0654750e-15
 6260.790    1.0645230e-15
 6262.911    1.0613020e-15
 6265.032    1.0591350e-15
 6267.153    1.0852300e-15
 6269.274    1.0874500e-15
 6271.395    1.0317740e-15
 6273.515    1.0048380e-15
 6275.636    1.0058820e-15
 6277.757    1.0207270e-15
 6279.878    9.9510040e-16
 6281.999    9.9101460e-16
 6284.120    9.8224570e-16
 6286.241    9.6936670e-16
 6288.362    9.9481550e-16
 6290.483    1.0202020e-15
 6292.604    1.0122080e-15
 6294.724    9.9882900e-16
 6296.845    1.0139110e-15
 6298.966    1.0277180e-15
 6301.087    1.0230800e-15
 6303.208    1.0103520e-15
 6305.329    1.0176400e-15
 6307.450    1.0382750e-15
 6309.571    1.0319260e-15
 6311.692    1.0132180e-15
 6313.813    1.0344870e-15
 6315.933    1.0464030e-15
 6318.054    1.0550170e-15
 6320.175    1.0621000e-15
 6322.296    1.0500440e-15
 6324.417    1.0482370e-15
 6326.538    1.0558700e-15
 6328.659    1.0277410e-15
 6330.780    1.0259390e-15
 6332.901    1.0348270e-15
 6335.022    1.0482770e-15
 6337.142    1.0512730e-15
 6339.263    1.0359780e-15
 6341.384    1.0210540e-15
 6343.505    1.0240690e-15
 6345.626    1.0359720e-15
 6347.747    1.0175510e-15
 6349.868    1.0257920e-15
 6351.989    1.0232130e-15
 6354.110    1.0161220e-15
 6356.231    1.0202540e-15
 6358.352    1.0122430e-15
 6360.472    1.0149490e-15
 6362.593    1.0173040e-15
 6364.714    9.9504960e-16
 6366.835    9.9216070e-16
 6368.956    1.0113190e-15
 6371.077    1.0286860e-15
 6373.198    1.0290040e-15
 6375.319    1.0212100e-15
 6377.440    1.0119140e-15
 6379.561    1.0028630e-15
 6381.681    9.9291260e-16
 6383.802    1.0000720e-15
 6385.923    1.0145680e-15
 6388.044    1.0172000e-15
 6390.165    1.0151840e-15
 6392.286    1.0116240e-15
 6394.407    1.0083830e-15
 6396.528    1.0079060e-15
 6398.649    1.0005430e-15
 6400.770    9.8672800e-16
 6402.890    9.8143630e-16
 6405.011    9.8637750e-16
 6407.132    9.9521710e-16
 6409.253    9.9709720e-16
 6411.374    9.8285640e-16
 6413.495    9.6932160e-16
 6415.616    9.7141160e-16
 6417.737    9.6123500e-16
 6419.858    9.4289480e-16
 6421.979    9.3012080e-16
 6424.099    9.3076500e-16
 6426.220    9.2656430e-16
 6428.341    9.1322000e-16
 6430.462    9.0697880e-16
 6432.583    8.9918670e-16
 6434.704    8.8795310e-16
 6436.825    8.7831420e-16
 6438.946    8.7956450e-16
 6441.067    8.7833070e-16
 6443.188    8.6355990e-16
 6445.309    8.5713960e-16
 6447.429    8.5174750e-16
 6449.550    8.4441540e-16
 6451.671    8.5189750e-16
 6453.792    8.5064770e-16
 6455.913    8.4023460e-16
 6458.034    8.4579110e-16
 6460.155    8.5313590e-16
 6462.276    8.5914620e-16
 6464.397    8.6970430e-16
 6466.518    8.8981380e-16
 6468.638    9.1236150e-16
 6470.759    9.3044830e-16
 6472.880    9.4987700e-16
 6475.001    9.7250880e-16
 6477.122    9.9850590e-16
 6479.243    1.0271550e-15
 6481.364    1.0528350e-15
 6483.485    1.0795160e-15
 6485.606    1.1179360e-15
 6487.727    1.1646510e-15
 6489.847    1.2149730e-15
 6491.968    1.2612750e-15
 6494.089    1.2885230e-15
 6496.210    1.3011640e-15
 6498.331    1.3113950e-15
 6500.452    1.3274190e-15
 6502.573    1.3601960e-15
 6504.694    1.4041150e-15
 6506.815    1.4355440e-15
 6508.936    1.4710510e-15
 6511.056    1.5002110e-15
 6513.177    1.5028680e-15
 6515.298    1.5442120e-15
 6517.419    1.6004890e-15
 6519.540    1.6221240e-15
 6521.661    1.6371420e-15
 6523.782    1.6513380e-15
 6525.903    1.6657540e-15
 6528.024    1.6857370e-15
 6530.145    1.7093980e-15
 6532.266    1.7378210e-15
 6534.386    1.7753150e-15
 6536.507    1.7969410e-15
 6538.628    1.8061200e-15
 6540.749    1.8264630e-15
 6542.870    1.8703600e-15
 6544.991    1.9025750e-15
 6547.112    1.8976560e-15
 6549.233    1.9095500e-15
 6551.354    1.9359550e-15
 6553.475    1.9637230e-15
 6555.595    1.9934690e-15
 6557.716    1.9908280e-15
 6559.837    1.9665270e-15
 6561.958    1.9724740e-15
 6564.079    1.9771550e-15
 6566.200    1.9735130e-15
 6568.321    1.9748960e-15
 6570.442    1.9916760e-15
 6572.563    2.0109040e-15
 6574.684    2.0153230e-15
 6576.804    2.0035200e-15
 6578.925    1.9974070e-15
 6581.046    2.0052460e-15
 6583.167    2.0071070e-15
 6585.288    2.0016730e-15
 6587.409    1.9886810e-15
 6589.530    1.9693880e-15
 6591.651    1.9599200e-15
 6593.772    1.9554510e-15
 6595.893    1.9474470e-15
 6598.013    1.9602100e-15
 6600.134    1.9840940e-15
 6602.255    1.9970380e-15
 6604.376    1.9850580e-15
 6606.497    1.9551630e-15
 6608.618    1.9297950e-15
 6610.739    1.9364440e-15
 6612.860    1.9359130e-15
 6614.981    1.9191780e-15
 6617.102    1.9075930e-15
 6619.223    1.9087320e-15
 6621.343    1.9021540e-15
 6623.464    1.8735310e-15
 6625.585    1.8685420e-15
 6627.706    1.8730540e-15
 6629.827    1.8648490e-15
 6631.948    1.8484130e-15
 6634.069    1.8524120e-15
 6636.190    1.8687660e-15
 6638.311    1.8485040e-15
 6640.432    1.8302280e-15
 6642.552    1.8242060e-15
 6644.673    1.8147630e-15
 6646.794    1.7920630e-15
 6648.915    1.7825450e-15
 6651.036    1.8031750e-15
 6653.157    1.8043140e-15
 6655.278    1.7870370e-15
 6657.399    1.7667820e-15
 6659.520    1.7525080e-15
 6661.641    1.7269840e-15
 6663.761    1.6971000e-15
 6665.882    1.6934060e-15
 6668.003    1.7036630e-15
 6670.124    1.6994400e-15
 6672.245    1.6640390e-15
 6674.366    1.6527320e-15
 6676.487    1.6526800e-15
 6678.608    1.6348060e-15
 6680.729    1.6109110e-15
 6682.850    1.5862900e-15
 6684.970    1.5681490e-15
 6687.091    1.5652840e-15
 6689.212    1.5649630e-15
 6691.333    1.5530340e-15
 6693.454    1.5238600e-15
 6695.575    1.5054170e-15
 6697.696    1.5029650e-15
 6699.817    1.5036610e-15
 6701.938    1.4947210e-15
 6704.059    1.4731980e-15
 6706.180    1.4484420e-15
 6708.300    1.4416120e-15
 6710.421    1.4282760e-15
 6712.542    1.3987470e-15
 6714.663    1.3763720e-15
 6716.784    1.3849270e-15
 6718.905    1.4086960e-15
 6721.026    1.4067420e-15
 6723.147    1.3824660e-15
 6725.268    1.3556520e-15
 6727.389    1.3425860e-15
 6729.509    1.3266230e-15
 6731.630    1.3110630e-15
 6733.751    1.3022760e-15
 6735.872    1.2983750e-15
 6737.993    1.2931440e-15
 6740.114    1.2884950e-15
 6742.235    1.2947850e-15
 6744.356    1.2963650e-15
 6746.477    1.2867850e-15
 6748.598    1.2710580e-15
 6750.718    1.2610630e-15
 6752.839    1.2615790e-15
 6754.960    1.2662440e-15
 6757.081    1.2546310e-15
 6759.202    1.2382580e-15
 6761.323    1.2287740e-15
 6763.444    1.2195980e-15
 6765.565    1.2163260e-15
 6767.686    1.2185020e-15
 6769.807    1.2182090e-15
 6771.927    1.2038630e-15
 6774.048    1.1902750e-15
 6776.169    1.1982860e-15
 6778.290    1.2036970e-15
 6780.411    1.1933080e-15
 6782.532    1.1723290e-15
 6784.653    1.1689900e-15
 6786.774    1.1772490e-15
 6788.895    1.1816870e-15
 6791.016    1.1715000e-15
 6793.137    1.1724220e-15
 6795.257    1.1820800e-15
 6797.378    1.1717840e-15
 6799.499    1.1525450e-15
 6801.620    1.1369870e-15
 6803.741    1.1311330e-15
 6805.862    1.1228850e-15
 6807.983    1.1083770e-15
 6810.104    1.0963740e-15
 6812.225    1.1100900e-15
 6814.346    1.1213900e-15
 6816.466    1.1133020e-15
 6818.587    1.1013910e-15
 6820.708    1.1135460e-15
 6822.829    1.1350910e-15
 6824.950    1.1255930e-15
 6827.071    1.1132670e-15
 6829.192    1.1124670e-15
 6831.313    1.1185590e-15
 6833.434    1.1051450e-15
 6835.555    1.0862250e-15
 6837.675    1.0797250e-15
 6839.796    1.0805800e-15
 6841.917    1.0773320e-15
 6844.038    1.0685290e-15
 6846.159    1.0657640e-15
 6848.280    1.0594750e-15
 6850.401    1.0657414e-15
 6852.522    1.0468197e-15
 6854.643    1.0397431e-15
 6856.764    1.0471431e-15
 6858.884    1.0382562e-15
 6861.005    1.0382193e-15
 6863.126    1.0353401e-15
 6865.247    1.0402015e-15
 6867.368    1.0249548e-15
 6869.489    1.0028334e-15
 6871.610    1.0247946e-15
 6873.731    1.0267985e-15
 6875.852    1.0352504e-15
 6877.973    1.0121840e-15
 6880.094    1.0252975e-15
 6882.214    1.0169379e-15
 6884.335    1.0237393e-15
 6886.456    1.0207938e-15
 6888.577    9.8863996e-16
 6890.698    1.0142412e-15
 6892.819    9.9853897e-16
 6894.940    1.0055959e-15
 6897.061    9.9449893e-16
 6899.182    9.7933373e-16
 6901.303    9.7796085e-16
 6903.423    9.8331629e-16
 6905.544    9.6915638e-16
 6907.665    9.6929919e-16
 6909.786    9.7111836e-16
 6911.907    9.8194715e-16
 6914.028    9.8394297e-16
 6916.149    9.8918367e-16
 6918.270    9.7383559e-16
 6920.391    9.6613283e-16
 6922.512    9.6015517e-16
 6924.632    9.7798206e-16
 6926.753    9.7693409e-16
 6928.874    9.6128760e-16
 6930.995    9.6571814e-16
 6933.116    9.7252503e-16
 6935.237    9.7653791e-16
 6937.358    9.6519446e-16
 6939.479    9.5573953e-16
 6941.600    9.4730780e-16
 6943.721    9.5001030e-16
 6945.841    9.4511620e-16
 6947.962    9.3456360e-16
 6950.083    9.3826690e-16
 6952.204    9.5400190e-16
 6954.325    9.6875320e-16
 6956.446    9.6882110e-16
 6958.567    9.6652530e-16
 6960.688    9.6706480e-16
 6962.809    9.6933360e-16
 6964.930    9.6844830e-16
 6967.051    9.7277670e-16
 6969.171    9.8326400e-16
 6971.292    9.8284030e-16
 6973.413    9.8151650e-16
 6975.534    9.8136130e-16
 6977.655    9.7277950e-16
 6979.776    9.6920340e-16
 6981.897    9.7332290e-16
 6984.018    9.7926830e-16
 6986.139    9.8532850e-16
 6988.260    9.8567680e-16
 6990.380    9.8064600e-16
 6992.501    9.8742940e-16
 6994.622    9.8865640e-16
 6996.743    9.7876310e-16
 6998.864    9.8297510e-16
 7000.985    9.8050330e-16
 7003.106    9.6926740e-16
 7005.227    9.6856310e-16
 7007.348    9.7158740e-16
 7009.469    9.7927960e-16
 7011.589    9.9122100e-16
 7013.710    9.8259780e-16
 7015.831    9.7202270e-16
 7017.952    9.7779630e-16
 7020.073    9.7871120e-16
 7022.194    9.7306090e-16
 7024.315    9.6675280e-16
 7026.436    9.6794500e-16
 7028.557    9.7458360e-16
 7030.678    9.8066120e-16
 7032.798    9.7960740e-16
 7034.919    9.6963470e-16
 7037.040    9.5922130e-16
 7039.161    9.5767250e-16
 7041.282    9.6020270e-16
 7043.403    9.6240350e-16
 7045.524    9.6349250e-16
 7047.645    9.6874060e-16
 7049.766    9.7061830e-16
 7051.887    9.7054430e-16
 7054.008    9.8169090e-16
 7056.128    9.9193040e-16
 7058.249    9.9095620e-16
 7060.370    9.7663960e-16
 7062.491    9.6514410e-16
 7064.612    9.5975060e-16
 7066.733    9.5696510e-16
 7068.854    9.5793250e-16
 7070.975    9.5691920e-16
 7073.096    9.4971240e-16
 7075.217    9.3854700e-16
 7077.337    9.3274630e-16
 7079.458    9.3858660e-16
 7081.579    9.5476690e-16
 7083.700    9.6353120e-16
 7085.821    9.5583510e-16
 7087.942    9.3681870e-16
 7090.063    9.3243800e-16
 7092.184    9.3619620e-16
 7094.305    9.2910790e-16
 7096.426    9.0424860e-16
 7098.546    8.8875740e-16
 7100.667    8.9805290e-16
 7102.788    9.1359190e-16
 7104.909    9.1933100e-16
 7107.030    9.0919620e-16
 7109.151    8.9006210e-16
 7111.272    8.7981550e-16
 7113.393    8.8234350e-16
 7115.514    8.9013260e-16
 7117.635    8.9555630e-16
 7119.755    8.9961780e-16
 7121.876    9.0067880e-16
 7123.997    8.8338820e-16
 7126.118    8.7238210e-16
 7128.239    8.7714000e-16
 7130.360    8.7412640e-16
 7132.481    8.7346650e-16
 7134.602    8.8160670e-16
 7136.723    8.9676800e-16
 7138.844    9.0855610e-16
 7140.965    9.1809590e-16
 7143.085    9.2929110e-16
 7145.206    9.3094340e-16
 7147.327    9.3029780e-16
 7149.448    9.3455360e-16
 7151.569    9.3722150e-16
 7153.690    9.3645650e-16
 7155.811    9.3308130e-16
 7157.932    9.2991680e-16
 7160.053    9.2108730e-16
 7162.174    9.1183330e-16
 7164.294    9.1178140e-16
 7166.415    9.0696560e-16
 7168.536    8.9533900e-16
 7170.657    8.8559460e-16
 7172.778    8.9346500e-16
 7174.899    9.0833670e-16
 7177.020    9.1487500e-16
 7179.141    9.0848420e-16
 7181.262    8.9153160e-16
 7183.383    8.7300690e-16
 7185.503    8.6416510e-16
 7187.624    8.5910640e-16
 7189.745    8.5672700e-16
 7191.866    8.5781000e-16
 7193.987    8.4949180e-16
 7196.108    8.4465910e-16
 7198.229    8.5437580e-16
 7200.350    8.5626860e-16
 7202.471    8.5558690e-16
 7204.592    8.6071030e-16
 7206.712    8.7136120e-16
 7208.833    8.7255110e-16
 7210.954    8.7397130e-16
 7213.075    9.0211580e-16
 7215.196    9.0640880e-16
 7217.317    8.8572220e-16
 7219.438    8.7006880e-16
 7221.559    8.6412820e-16
 7223.680    8.6241480e-16
 7225.801    8.5911330e-16
 7227.922    8.5937460e-16
 7230.042    8.5673540e-16
 7232.163    8.5247590e-16
 7234.284    8.6054100e-16
 7236.405    8.6449830e-16
 7238.526    8.6577800e-16
 7240.647    8.7893750e-16
 7242.768    8.7749850e-16
 7244.889    8.6685330e-16
 7247.010    8.6379670e-16
 7249.131    8.5594290e-16
 7251.251    8.4128560e-16
 7253.372    8.3215290e-16
 7255.493    8.5650030e-16
 7257.614    8.7590790e-16
 7259.735    8.6992900e-16
 7261.856    8.6050270e-16
 7263.977    8.7241520e-16
 7266.098    8.9160780e-16
 7268.219    8.8425380e-16
 7270.340    8.8257880e-16
 7272.460    8.8972000e-16
 7274.581    8.9420220e-16
 7276.702    8.9410660e-16
 7278.823    9.0138650e-16
 7280.944    9.1751640e-16
 7283.065    9.1977340e-16
 7285.186    9.1274670e-16
 7287.307    9.0280070e-16
 7289.428    8.9210310e-16
 7291.549    8.9116530e-16
 7293.669    8.9488470e-16
 7295.790    8.9150000e-16
 7297.911    8.8983720e-16
 7300.032    8.9739560e-16
 7302.153    9.1077460e-16
 7304.274    9.0582310e-16
 7306.395    8.9616490e-16
 7308.516    8.9934640e-16
 7310.637    9.1773370e-16
 7312.758    9.2397190e-16
 7314.879    9.1152540e-16
 7316.999    9.0004130e-16
 7319.120    9.0324670e-16
 7321.241    9.0783100e-16
 7323.362    8.9553300e-16
 7325.483    8.9680990e-16
 7327.604    9.0479500e-16
 7329.725    9.0163800e-16
 7331.846    8.8425420e-16
 7333.967    8.8059020e-16
 7336.088    8.9566530e-16
 7338.208    8.9432490e-16
 7340.329    8.8314740e-16
 7342.450    8.8026620e-16
 7344.571    9.0127200e-16
 7346.692    9.2091090e-16
 7348.813    9.2301700e-16
 7350.934    9.0741350e-16
 7353.055    8.9458470e-16
 7355.176    8.8309640e-16
 7357.297    8.6858800e-16
 7359.417    8.5931380e-16
 7361.538    8.5571610e-16
 7363.659    8.5590850e-16
 7365.780    8.5773540e-16
 7367.901    8.6509630e-16
 7370.022    8.7866250e-16
 7372.143    8.9377540e-16
 7374.264    8.9286630e-16
 7376.385    8.9208430e-16
 7378.506    9.0667260e-16
 7380.626    8.9892220e-16
 7382.747    8.7744990e-16
 7384.868    8.6379490e-16
 7386.989    8.6886590e-16
 7389.110    8.8140470e-16
 7391.231    8.9104880e-16
 7393.352    8.9600700e-16
 7395.473    8.8996830e-16
 7397.594    8.8308620e-16
 7399.715    8.9131040e-16
 7401.836    9.0841080e-16
 7403.956    9.1540800e-16
 7406.077    9.0455020e-16
 7408.198    9.0617600e-16
 7410.319    9.1285940e-16
 7412.440    9.1462760e-16
 7414.561    9.1736030e-16
 7416.682    9.0626560e-16
 7418.803    8.8888560e-16
 7420.924    8.9101280e-16
 7423.045    8.7598620e-16
 7425.165    8.5406470e-16
 7427.286    8.5582820e-16
 7429.407    8.5794250e-16
 7431.528    8.5967940e-16
 7433.649    8.6615450e-16
 7435.770    8.7164580e-16
 7437.891    8.7956950e-16
 7440.012    8.9057200e-16
 7442.133    8.9894640e-16
 7444.254    8.9415570e-16
 7446.374    8.8758620e-16
 7448.495    9.0193410e-16
 7450.616    9.0442670e-16
 7452.737    8.9203060e-16
 7454.858    8.7955920e-16
 7456.979    8.6805990e-16
 7459.100    8.6759240e-16
 7461.221    8.7820470e-16
 7463.342    8.7702690e-16
 7465.463    8.7694930e-16
 7467.583    8.8127260e-16
 7469.704    8.7242630e-16
 7471.825    8.7009320e-16
 7473.946    8.7699670e-16
 7476.067    8.8154740e-16
 7478.188    8.9120950e-16
 7480.309    8.9661510e-16
 7482.430    8.8857820e-16
 7484.551    8.8357750e-16
 7486.672    8.8091170e-16
 7488.793    8.7648590e-16
 7490.913    8.7174200e-16
 7493.034    8.7005490e-16
 7495.155    8.7002950e-16
 7497.276    8.6575560e-16
 7499.397    8.6587710e-16
 7501.518    8.7568930e-16
 7503.639    8.9279370e-16
 7505.760    9.0035520e-16
 7507.881    8.9499530e-16
 7510.002    8.8690810e-16
 7512.122    8.9719020e-16
 7514.243    9.1475170e-16
 7516.364    9.2263200e-16
 7518.485    9.1473570e-16
 7520.606    8.9827290e-16
 7522.727    8.8166200e-16
 7524.848    8.6984190e-16
 7526.969    8.6500210e-16
 7529.090    8.6218990e-16
 7531.211    8.5590110e-16
 7533.331    8.5439650e-16
 7535.452    8.5773810e-16
 7537.573    8.6340190e-16
 7539.694    8.7195750e-16
 7541.815    8.8498110e-16
 7543.936    8.9660650e-16
 7546.057    8.9297690e-16
 7548.178    8.7249010e-16
 7550.299    8.5684890e-16
 7552.420    8.7475190e-16
 7554.540    8.8776670e-16
 7556.661    8.7576340e-16
 7558.782    8.4441810e-16
 7560.903    8.2670630e-16
 7563.024    8.2249370e-16
 7565.145    8.2148460e-16
 7567.266    8.2444050e-16
 7569.387    8.2872930e-16
 7571.508    8.3141420e-16
 7573.629    8.3049260e-16
 7575.750    8.2904920e-16
 7577.870    8.3327600e-16
 7579.991    8.4540730e-16
 7582.112    8.1078891e-16
 7584.233    8.0730568e-16
 7586.354    7.7852439e-16
 7588.475    7.9363680e-16
 7590.596    7.7123662e-16
 7592.717    7.6955166e-16
 7594.838    7.9124211e-16
 7596.959    7.6696110e-16
 7599.079    7.5069188e-16
 7601.200    7.2734752e-16
 7603.321    7.5790143e-16
 7605.442    7.0297769e-16
 7607.563    7.1658556e-16
 7609.684    6.9943152e-16
 7611.805    7.0170299e-16
 7613.926    7.2890212e-16
 7616.047    7.5149166e-16
 7618.168    6.9152867e-16
 7620.288    6.4594754e-16
 7622.409    6.6873753e-16
 7624.530    6.5945503e-16
 7626.651    6.5831961e-16
 7628.772    6.6544332e-16
 7630.893    6.2810643e-16
 7633.014    6.9365946e-16
 7635.135    6.7904612e-16
 7637.256    6.4447493e-16
 7639.377    6.6131273e-16
 7641.497    6.2629206e-16
 7643.618    6.5384174e-16
 7645.739    6.8792285e-16
 7647.860    5.9507357e-16
 7649.981    6.3830224e-16
 7652.102    6.5157695e-16
 7654.223    5.9586072e-16
 7656.344    6.4734083e-16
 7658.465    6.3741047e-16
 7660.586    6.7554324e-16
 7662.707    6.4418449e-16
 7664.827    6.1888772e-16
 7666.948    5.9405946e-16
 7669.069    6.2898549e-16
 7671.190    6.4238906e-16
 7673.311    6.5996378e-16
 7675.432    6.6205536e-16
 7677.553    6.2479444e-16
 7679.674    6.1763994e-16
 7681.795    6.1912700e-16
 7683.916    6.2286490e-16
 7686.036    6.3750660e-16
 7688.157    6.5686220e-16
 7690.278    6.6605900e-16
 7692.399    6.6652580e-16
 7694.520    6.6722040e-16
 7696.641    6.7131510e-16
 7698.762    6.6745520e-16
 7700.883    6.6562760e-16
 7703.004    6.7436240e-16
 7705.125    6.9380210e-16
 7707.245    7.2081280e-16
 7709.366    7.4716710e-16
 7711.487    7.6454730e-16
 7713.608    7.7613430e-16
 7715.729    7.8413430e-16
 7717.850    7.9118380e-16
 7719.971    8.0276990e-16
 7722.092    8.1281660e-16
 7724.213    8.1399980e-16
 7726.334    8.0463300e-16
 7728.454    7.9307990e-16
 7730.575    7.8978360e-16
 7732.696    8.0055360e-16
 7734.817    7.9717860e-16
 7736.938    7.8007730e-16
 7739.059    7.7077870e-16
 7741.180    7.8310780e-16
 7743.301    8.0182910e-16
 7745.422    8.1265010e-16
 7747.543    8.3483230e-16
 7749.664    8.5780090e-16
 7751.784    8.6840730e-16
 7753.905    8.6362150e-16
 7756.026    8.6591300e-16
 7758.147    8.7409230e-16
 7760.268    8.6510680e-16
 7762.389    8.4970700e-16
 7764.510    8.3108730e-16
 7766.631    8.1025150e-16
 7768.752    7.9916910e-16
 7770.873    8.0176610e-16
 7772.993    8.0975270e-16
 7775.114    8.0053720e-16
 7777.235    8.0152550e-16
 7779.356    8.2169890e-16
 7781.477    8.3131490e-16
 7783.598    8.5190150e-16
 7785.719    8.8026820e-16
 7787.840    8.6851615e-16
 7789.961    8.6264013e-16
 7792.082    8.5970211e-16
 7794.202    8.5676410e-16
 7796.323    8.3786150e-16
 7798.444    8.2444290e-16
 7800.565    8.1302960e-16
 7802.686    8.1411920e-16
 7804.807    8.0656930e-16
 7806.928    7.9325820e-16
 7809.049    8.0777030e-16
 7811.170    8.0933800e-16
 7813.291    8.0162770e-16
 7815.411    8.1672170e-16
 7817.532    8.3537110e-16
 7819.653    8.5020970e-16
 7821.774    8.6319310e-16
 7823.895    8.8132800e-16
 7826.016    8.5924430e-16
 7828.137    8.7922120e-16
 7830.258    8.5529550e-16
 7832.379    8.4099110e-16
 7834.500    8.4029250e-16
 7836.621    8.3542120e-16
 7838.741    8.2262460e-16
 7840.862    8.0919990e-16
 7842.983    8.0688840e-16
 7845.104    8.1692430e-16
 7847.225    8.2430410e-16
 7849.346    8.1830730e-16
 7851.467    8.1307430e-16
 7853.588    8.2335200e-16
 7855.709    8.4625310e-16
 7857.830    8.5599200e-16
 7859.950    8.5994430e-16
 7862.071    8.6227000e-16
 7864.192    8.5984440e-16
 7866.313    8.5474120e-16
 7868.434    8.4769240e-16
 7870.555    8.3781000e-16
 7872.676    8.2037230e-16
 7874.797    8.1194790e-16
 7876.918    8.1717610e-16
 7879.039    8.0165150e-16
 7881.159    7.8397570e-16
 7883.280    7.8381970e-16
 7885.401    8.0115720e-16
 7887.522    8.2556920e-16
 7889.643    8.4283480e-16
 7891.764    8.4355790e-16
 7893.885    8.4272960e-16
 7896.006    8.4760620e-16
 7898.127    8.5628290e-16
 7900.248    8.6040940e-16
 7902.368    8.5302800e-16
 7904.489    8.3759140e-16
 7906.610    8.3216550e-16
 7908.731    8.2585380e-16
 7910.852    8.0794880e-16
 7912.973    7.7854720e-16
 7915.094    7.7384570e-16
 7917.215    7.9046400e-16
 7919.336    7.9759100e-16
 7921.457    8.0140240e-16
 7923.578    8.0040970e-16
 7925.698    7.9580550e-16
 7927.819    8.0373280e-16
 7929.940    8.2811130e-16
 7932.061    8.5404740e-16
 7934.182    8.4849460e-16
 7936.303    8.4047750e-16
 7938.424    8.4072300e-16
 7940.545    8.2915930e-16
 7942.666    8.1464390e-16
 7944.787    7.9671750e-16
 7946.907    7.7403830e-16
 7949.028    7.7204120e-16
 7951.149    7.7685770e-16
 7953.270    7.7387160e-16
 7955.391    7.9090250e-16
 7957.512    8.0952480e-16
 7959.633    8.1139170e-16
 7961.754    8.0011990e-16
 7963.875    8.0759290e-16
 7965.996    8.3353870e-16
 7968.116    8.4525850e-16
 7970.237    8.4198540e-16
 7972.358    8.2430910e-16
 7974.479    7.9979370e-16
 7976.600    7.9719870e-16
 7978.721    7.9772960e-16
 7980.842    7.8139210e-16
 7982.963    7.6897530e-16
 7985.084    7.6518720e-16
 7987.205    7.6481260e-16
 7989.325    7.5637060e-16
 7991.446    7.5186480e-16
 7993.567    7.5443130e-16
 7995.688    7.5863220e-16
 7997.809    7.7356240e-16
 7999.930    7.9360600e-16
 8002.051    8.0682940e-16
 8004.172    8.0938870e-16
 8006.293    8.1007010e-16
 8008.414    8.1338850e-16
 8010.535    8.0790730e-16
 8012.655    7.9086740e-16
 8014.776    7.7257030e-16
 8016.897    7.7271670e-16
 8019.018    7.6910600e-16
 8021.139    7.5512260e-16
 8023.260    7.4085670e-16
 8025.381    7.3969490e-16
 8027.502    7.3716890e-16
 8029.623    7.2131630e-16
 8031.744    7.2404230e-16
 8033.864    7.5170120e-16
 8035.985    7.8516300e-16
 8038.106    7.8476390e-16
 8040.227    7.8165730e-16
 8042.348    7.8788480e-16
 8044.469    7.8218230e-16
 8046.590    7.8464350e-16
 8048.711    7.9947720e-16
 8050.832    8.1351070e-16
 8052.953    7.9784170e-16
 8055.073    7.7239420e-16
 8057.194    7.6397100e-16
 8059.315    7.5645680e-16
 8061.436    7.5551290e-16
 8063.557    7.5552790e-16
 8065.678    7.2956550e-16
 8067.799    7.0733100e-16
 8069.920    7.0298280e-16
 8072.041    7.0591660e-16
 8074.162    7.1568200e-16
 8076.282    7.2464660e-16
 8078.403    7.2603050e-16
 8080.524    7.2861520e-16
 8082.645    7.3525970e-16
 8084.766    7.4683880e-16
 8086.887    7.6609190e-16
 8089.008    7.8084560e-16
 8091.129    7.7888010e-16
 8093.250    7.5589660e-16
 8095.371    7.4169200e-16
 8097.492    7.3962100e-16
 8099.612    7.2900370e-16
 8101.733    7.1676430e-16
 8103.854    7.0704260e-16
 8105.975    6.9820080e-16
 8108.096    6.7751900e-16
 8110.217    6.6119860e-16
 8112.338    6.6295490e-16
 8114.459    6.7001550e-16
 8116.580    6.8662220e-16
 8118.701    7.0588620e-16
 8120.821    7.0725250e-16
 8122.942    7.0353460e-16
 8125.063    7.0848690e-16
 8127.184    7.2663880e-16
 8129.305    7.3185860e-16
 8131.426    7.2909370e-16
 8133.547    7.3313430e-16
 8135.668    7.3539680e-16
 8137.789    7.3226220e-16
 8139.910    7.2257120e-16
 8142.030    7.0721620e-16
 8144.151    6.8283640e-16
 8146.272    6.5719560e-16
 8148.393    6.4733200e-16
 8150.514    6.4340520e-16
 8152.635    6.3919260e-16
 8154.756    6.3377130e-16
 8156.877    6.2755070e-16
 8158.998    6.2553910e-16
 8161.119    6.3210440e-16
 8163.239    6.4482870e-16
 8165.360    6.6786580e-16
 8167.481    6.9461790e-16
 8169.602    7.0243580e-16
 8171.723    7.1206250e-16
 8173.844    7.2345260e-16
 8175.965    7.1426360e-16
 8178.086    6.9743140e-16
 8180.207    6.9342620e-16
 8182.328    7.1040020e-16
 8184.449    7.0562490e-16
 8186.569    6.9106760e-16
 8188.690    6.8764750e-16
 8190.811    6.8013300e-16
 8192.932    6.7405460e-16
 8195.053    6.6956130e-16
 8197.174    6.7284455e-16
 8199.295    6.7344958e-16
 8201.416    6.7163450e-16
 8203.537    6.9115800e-16
 8205.658    7.0860900e-16
 8207.778    7.3133220e-16
 8209.899    7.6337560e-16
 8212.020    7.7416905e-16
 8214.141    7.6877233e-16
 8216.262    7.6607396e-16
 8218.383    7.6307623e-16
 8220.504    7.6007850e-16
 8222.625    7.4289400e-16
 8224.746    7.2080130e-16
 8226.867    6.8319700e-16
 8228.987    6.6154565e-16
 8231.108    6.5151792e-16
 8233.229    6.5171921e-16
 8235.350    6.3989430e-16
 8237.471    6.4149020e-16
 8239.592    6.5192050e-16
 8241.713    6.6811370e-16
 8243.834    6.8373220e-16
 8245.955    7.0365610e-16
 8248.076    7.1574450e-16
 8250.196    7.1280660e-16
 8252.317    6.9862050e-16
 8254.438    6.9424780e-16
 8256.559    7.0080270e-16
 8258.680    7.0521020e-16
 8260.801    7.0641530e-16
 8262.922    7.0716160e-16
 8265.043    7.1099640e-16
 8267.164    7.1885310e-16
 8269.285    7.1327110e-16
 8271.406    6.8547520e-16
 8273.526    6.4852830e-16
 8275.647    6.2226930e-16
 8277.768    6.1086450e-16
 8279.889    6.0246580e-16
 8282.010    6.0297040e-16
 8284.131    6.1056050e-16
 8286.252    6.1796220e-16
 8288.373    6.1816860e-16
 8290.494    6.1735610e-16
 8292.615    6.2534450e-16
 8294.735    6.4680360e-16
 8296.856    6.5085730e-16
 8298.977    6.3310600e-16
 8301.098    6.3447460e-16
 8303.219    6.5166370e-16
 8305.340    6.5957060e-16
 8307.461    6.3109630e-16
 8309.582    6.0942990e-16
 8311.703    5.9498670e-16
 8313.824    5.7044920e-16
 8315.944    5.5719680e-16
 8318.065    5.4558990e-16
 8320.186    5.2218590e-16
 8322.307    4.8959730e-16
 8324.428    4.8553120e-16
 8326.549    5.0698300e-16
 8328.670    4.9701040e-16
 8330.791    4.6703800e-16
 8332.912    4.4625880e-16
 8335.033    4.5996720e-16
 8337.153    4.7636860e-16
 8339.274    4.8286590e-16
 8341.395    4.8518200e-16
 8343.516    4.9980680e-16
 8345.637    5.1779790e-16
 8347.758    5.2031650e-16
 8349.879    4.9105280e-16
 8352.000    4.8417840e-16
 8354.121    5.0300950e-16
 8356.242    4.8579500e-16
 8358.363    4.6375740e-16
 8360.483    4.5101750e-16
 8362.604    4.4342410e-16
 8364.725    4.3827510e-16
 8366.846    4.2884230e-16
 8368.967    4.1243230e-16
 8371.088    3.9789900e-16
 8373.209    3.9250710e-16
 8375.330    3.9560020e-16
 8377.451    3.9679040e-16
 8379.572    3.9850510e-16
 8381.692    4.0555700e-16
 8383.813    4.2072530e-16
 8385.934    4.3074350e-16
 8388.055    4.3502320e-16
 8390.176    4.4156390e-16
 8392.297    4.5591420e-16
 8394.418    4.5472620e-16
 8396.539    4.2721970e-16
 8398.660    4.1309200e-16
 8400.781    4.2153030e-16
 8402.901    4.3775580e-16
 8405.022    4.3110830e-16
 8407.143    4.1323330e-16
 8409.264    3.9773120e-16
 8411.385    3.9151620e-16
 8413.506    3.9053430e-16
 8415.627    3.9491430e-16
 8417.748    4.0380850e-16
 8419.869    4.0223420e-16
 8421.990    4.0674680e-16
 8424.110    4.2881840e-16
 8426.231    4.4737680e-16
 8428.352    4.4767420e-16
 8430.473    4.4498420e-16
 8432.594    4.8264990e-16
 8434.715    5.1283850e-16
 8436.836    5.2299210e-16
 8438.957    5.3389230e-16
 8441.078    5.3391660e-16
 8443.199    5.3429980e-16
 8445.320    5.4851210e-16
 8447.440    5.6286460e-16
 8449.561    5.6645140e-16
 8451.682    5.5842350e-16
 8453.803    5.5170150e-16
 8455.924    5.5477490e-16
 8458.045    5.6579980e-16
 8460.166    5.7366140e-16
 8462.287    5.8337420e-16
 8464.408    5.9196010e-16
 8466.529    5.9595830e-16
 8468.649    6.2088060e-16
 8470.770    6.4849810e-16
 8472.891    6.5347260e-16
 8475.012    6.4918320e-16
 8477.133    6.4923490e-16
 8479.254    6.5894970e-16
 8481.375    6.7017760e-16
 8483.496    6.7470760e-16
 8485.617    6.7021210e-16
 8487.738    6.6083910e-16
 8489.858    6.4723780e-16
 8491.979    6.3085270e-16
 8494.100    6.1538140e-16
 8496.221    6.1231610e-16
 8498.342    6.0924370e-16
 8500.463    5.9643590e-16
 8502.584    5.9279560e-16
 8504.705    5.9829010e-16
 8506.826    6.0205350e-16
 8508.947    5.8873710e-16
 8511.067    5.7763520e-16
 8513.188    5.7704120e-16
 8515.309    5.8054210e-16
 8517.430    5.9274450e-16
 8519.551    6.0648760e-16
 8521.672    6.1151550e-16
 8523.793    6.1064170e-16
 8525.914    6.0509190e-16
 8528.035    5.9810790e-16
 8530.156    5.9748190e-16
 8532.277    5.9085150e-16
 8534.397    5.7795330e-16
 8536.518    5.7815840e-16
 8538.639    5.6636020e-16
 8540.760    5.5208160e-16
 8542.881    5.6378500e-16
 8545.002    5.5707830e-16
 8547.123    5.3749140e-16
 8549.244    5.3416690e-16
 8551.365    5.5514870e-16
 8553.486    5.7194720e-16
 8555.606    5.7149330e-16
 8557.727    5.8946540e-16
 8559.848    6.1238890e-16
 8561.969    6.2634860e-16
 8564.090    6.3061860e-16
 8566.211    6.4474200e-16
 8568.332    6.6697090e-16
 8570.453    6.8034090e-16
 8572.574    6.8295950e-16
 8574.695    6.7861160e-16
 8576.815    6.7415320e-16
 8578.936    6.7585130e-16
 8581.057    6.7538560e-16
 8583.178    6.7094320e-16
 8585.299    6.7722750e-16
 8587.420    6.8873840e-16
 8589.541    6.9834860e-16
 8591.662    7.0198450e-16
 8593.783    6.9320300e-16
 8595.904    6.8584180e-16
 8598.024    6.9791670e-16
 8600.145    7.1520380e-16
 8602.266    7.2176280e-16
 8604.387    7.1697750e-16
 8606.508    7.2959190e-16
 8608.629    7.6412960e-16
 8610.750    8.0205930e-16
 8612.871    8.0896710e-16
 8614.992    8.1008880e-16
 8617.113    8.2213120e-16
 8619.234    8.4046880e-16
 8621.354    8.3214840e-16
 8623.475    8.1877060e-16
 8625.596    8.3390160e-16
 8627.717    8.3506930e-16
 8629.838    8.0758830e-16
 8631.959    7.6800210e-16
 8634.080    7.6317890e-16
 8636.201    7.6590600e-16
 8638.322    7.6068760e-16
 8640.443    7.7082260e-16
 8642.563    7.7342190e-16
 8644.684    7.7523960e-16
 8646.805    7.9814160e-16
 8648.926    7.8753280e-16
 8651.047    7.6644690e-16
 8653.168    7.8175500e-16
 8655.289    8.1556160e-16
 8657.410    8.3315570e-16
 8659.531    8.2959410e-16
 8661.652    8.5830480e-16
 8663.772    8.8376220e-16
 8665.893    8.8052660e-16
 8668.014    8.5974750e-16
 8670.135    8.5840920e-16
 8672.256    8.6150220e-16
 8674.377    8.3217610e-16
 8676.498    8.3145300e-16
 8678.619    8.4428590e-16
 8680.740    8.3327690e-16
 8682.861    8.1160330e-16
 8684.981    7.9353230e-16
 8687.102    7.9071100e-16
 8689.223    8.0695780e-16
 8691.344    8.1260080e-16
 8693.465    8.0171920e-16
 8695.586    7.9807010e-16
 8697.707    7.9331630e-16
 8699.828    8.0022430e-16
 8701.949    8.3151600e-16
 8704.070    8.4371240e-16
 8706.191    8.4643450e-16
 8708.311    8.5918870e-16
 8710.432    8.6390410e-16
 8712.553    8.6466030e-16
 8714.674    8.6614200e-16
 8716.795    8.6565570e-16
 8718.916    8.5233660e-16
 8721.037    8.3934240e-16
 8723.158    8.5202190e-16
 8725.279    8.3803740e-16
 8727.400    8.0147350e-16
 8729.520    7.7902130e-16
 8731.641    7.8096710e-16
 8733.762    7.8530560e-16
 8735.883    7.7275010e-16
 8738.004    7.5850040e-16
 8740.125    7.4880790e-16
 8742.246    7.5054550e-16
 8744.367    7.7076470e-16
 8746.488    7.9241880e-16
 8748.609    8.0158870e-16
 8750.729    7.9676960e-16
 8752.850    8.0901190e-16
 8754.971    8.2876280e-16
 8757.092    8.3044680e-16
 8759.213    8.1501030e-16
 8761.334    8.1243410e-16
 8763.455    8.2640160e-16
 8765.576    7.9995120e-16
 8767.697    7.6251740e-16
 8769.818    7.4512450e-16
 8771.938    7.5259310e-16
 8774.059    7.4953120e-16
 8776.180    7.2552490e-16
 8778.301    6.9490780e-16
 8780.422    6.6591210e-16
 8782.543    6.7019185e-16
 8784.664    6.5373000e-16
 8786.785    6.6337970e-16
 8788.906    6.7447160e-16
 8791.027    6.8738980e-16
 8793.148    7.0651050e-16
 8795.268    7.0513360e-16
 8797.389    6.8998810e-16
 8799.510    7.0060080e-16
 8801.631    6.8696620e-16
 8803.752    6.7202340e-16
 8805.873    7.0409360e-16
 8807.994    7.1713720e-16
 8810.115    7.0158250e-16
 8812.236    6.7651870e-16
 8814.357    6.5414000e-16
 8816.477    6.5634880e-16
 8818.598    6.7675740e-16
 8820.719    6.7138120e-16
 8822.840    6.4713060e-16
 8824.961    6.2221660e-16
 8827.082    6.1372410e-16
 8829.203    6.2187290e-16
 8831.324    6.2909420e-16
 8833.445    6.1977810e-16
 8835.566    6.1497900e-16
 8837.686    6.2746990e-16
 8839.807    6.5352040e-16
 8841.928    6.6801790e-16
 8844.049    6.7581650e-16
 8846.170    6.8067150e-16
 8848.291    6.7508180e-16
 8850.412    6.7944130e-16
 8852.533    6.9042520e-16
 8854.654    6.8755920e-16
 8856.775    6.8627100e-16
 8858.895    6.8330130e-16
 8861.016    6.6836930e-16
 8863.137    6.4444350e-16
 8865.258    6.2653920e-16
 8867.379    6.2089250e-16
 8869.500    6.1102790e-16
 8871.621    6.0256890e-16
 8873.742    6.0090920e-16
 8875.863    6.0478350e-16
 8877.984    6.2531400e-16
 8880.105    6.4223390e-16
 8882.225    6.2832230e-16
 8884.346    6.3626060e-16
 8886.467    6.6047560e-16
 8888.588    6.7390320e-16
 8890.709    6.8389880e-16
 8892.830    6.8474340e-16
 8894.951    6.7901050e-16
 8897.072    6.8629000e-16
 8899.193    6.7818470e-16
 8901.314    6.4973880e-16
 8903.434    6.2812210e-16
 8905.555    6.0432040e-16
 8907.676    5.9252700e-16
 8909.797    6.0641620e-16
 8911.918    5.8996630e-16
 8914.039    5.6539810e-16
 8916.160    5.7096640e-16
 8918.281    5.9168680e-16
 8920.402    5.8731920e-16
 8922.523    5.5547060e-16
 8924.643    5.5559000e-16
 8926.764    5.5967590e-16
 8928.885    5.6437930e-16
 8931.006    5.9397980e-16
 8933.127    6.0814660e-16
 8935.248    6.0457810e-16
 8937.369    6.0373700e-16
 8939.490    6.0693780e-16
 8941.611    6.0674190e-16
 8943.732    5.9909800e-16
 8945.852    5.9546500e-16
 8947.973    5.8044430e-16
 8950.094    5.5204120e-16
 8952.215    5.3256850e-16
 8954.336    5.3321760e-16
 8956.457    5.3230770e-16
 8958.578    4.9706470e-16
 8960.699    4.8715160e-16
 8962.820    4.9229340e-16
 8964.941    4.7988470e-16
 8967.062    4.8644090e-16
 8969.182    5.0009030e-16
 8971.303    5.0592210e-16
 8973.424    5.1671160e-16
 8975.545    5.4435190e-16
 8977.666    5.7249380e-16
 8979.787    5.5879380e-16
 8981.908    5.3569780e-16
 8984.029    5.2715060e-16
 8986.150    5.3726420e-16
 8988.271    5.4456710e-16
 8990.391    5.4787630e-16
 8992.512    5.5414020e-16
 8994.633    5.5884040e-16
 8996.754    5.5130910e-16
 8998.875    5.3218980e-16
 9000.996    5.2215700e-16
 9003.117    5.1651070e-16
 9005.238    5.1279000e-16
 9007.359    5.1554980e-16
 9009.480    5.2918290e-16
 9011.600    5.4054730e-16
 9013.721    5.3552370e-16
 9015.842    5.4535150e-16
 9017.963    5.6214040e-16
 9020.084    5.6485390e-16
 9022.205    5.4771120e-16
 9024.326    5.6547570e-16
 9026.447    6.1938370e-16
 9028.568    6.1447710e-16
 9030.689    6.0689610e-16
 9032.809    6.2185830e-16
 9034.930    6.3253680e-16
 9037.051    6.3380860e-16
 9039.172    6.3049820e-16
 9041.293    6.2580480e-16
 9043.414    5.9073690e-16
 9045.535    5.5435580e-16
 9047.656    5.4784920e-16
 9049.777    5.5286530e-16
 9051.898    5.5905290e-16
 9054.019    5.5852330e-16
 9056.139    5.4681570e-16
 9058.260    5.4127320e-16
 9060.381    5.4061400e-16
 9062.502    5.2874220e-16
 9064.623    5.1630460e-16
 9066.744    5.0880800e-16
 9068.865    5.0976800e-16
 9070.986    5.3054980e-16
 9073.107    5.4388950e-16
 9075.228    5.3420540e-16
 9077.348    5.3291970e-16
 9079.469    5.3995320e-16
 9081.590    5.4431060e-16
 9083.711    5.3284240e-16
 9085.832    5.1260140e-16
 9087.953    4.9166330e-16
 9090.074    4.7446370e-16
 9092.195    4.5482190e-16
 9094.316    4.3580990e-16
 9096.437    4.2451860e-16
 9098.557    4.2321290e-16
 9100.678    4.3245400e-16
 9102.799    4.4726100e-16
 9104.920    4.5673220e-16
 9107.041    4.5680890e-16
 9109.162    4.5443870e-16
 9111.283    4.6324150e-16
 9113.404    4.6578600e-16
 9115.525    4.6015740e-16
 9117.646    4.5577030e-16
 9119.766    4.5171920e-16
 9121.887    4.4900870e-16
 9124.008    4.5116450e-16
 9126.129    4.6698030e-16
 9128.250    4.6462290e-16
 9130.371    4.4265890e-16
 9132.492    4.5743750e-16
 9134.613    4.6220410e-16
 9136.734    4.3831970e-16
 9138.855    4.1259130e-16
 9140.976    4.2209120e-16
 9143.096    4.4070660e-16
 9145.217    4.2593420e-16
 9147.338    4.3126110e-16
 9149.459    4.5001510e-16
 9151.580    4.6431360e-16
 9153.701    4.9206740e-16
 9155.822    5.0851850e-16
 9157.943    5.0243190e-16
 9160.064    4.9485510e-16
 9162.185    4.9815620e-16
 9164.305    5.1168660e-16
 9166.426    5.2319330e-16
 9168.547    5.1666070e-16
 9170.668    5.1418940e-16
 9172.789    5.3614890e-16
 9174.910    5.2814740e-16
 9177.031    5.1328130e-16
 9179.152    5.1856610e-16
 9181.273    5.1942270e-16
 9183.394    5.1126140e-16
 9185.514    5.0135940e-16
 9187.635    5.0489680e-16
 9189.756    5.0840770e-16
 9191.877    5.2000910e-16
 9193.998    5.5443730e-16
 9196.119    5.6160620e-16
 9198.240    5.5454810e-16
 9200.361    5.6575830e-16
 9202.482    5.8027900e-16
 9204.603    5.8564250e-16
 9206.723    5.8206330e-16
 9208.844    5.8781150e-16
 9210.965    6.0618020e-16
 9213.086    6.2296980e-16
 9215.207    6.1423550e-16
 9217.328    6.1443910e-16
 9219.449    6.2000240e-16
 9221.570    6.0452400e-16
 9223.691    5.8096690e-16
 9225.812    5.5278030e-16
 9227.933    5.2484270e-16
 9230.053    5.1537110e-16
 9232.174    5.2296960e-16
 9234.295    5.3559350e-16
 9236.416    5.3817630e-16
 9238.537    5.3490720e-16
 9240.658    5.3534740e-16
 9242.779    5.4735970e-16
 9244.900    5.6383420e-16
 9247.021    5.7285580e-16
 9249.142    5.6757350e-16
 9251.262    5.6172330e-16
 9253.383    5.6922260e-16
 9255.504    5.9232930e-16
 9257.625    5.6643540e-16
 9259.746    5.6504180e-16
 9261.867    5.6364820e-16
 9263.988    5.5056350e-16
 9266.109    5.3774990e-16
 9268.230    5.1308750e-16
 9270.351    4.8613470e-16
 9272.471    4.5729470e-16
 9274.592    4.4107510e-16
 9276.713    4.4772280e-16
 9278.834    4.5412670e-16
 9280.955    4.4530940e-16
 9283.076    4.2723310e-16
 9285.197    4.3359030e-16
 9287.318    4.4073490e-16
 9289.439    4.3496100e-16
 9291.560    4.3180710e-16
 9293.680    4.4713770e-16
 9295.801    4.6344780e-16
 9297.922    4.5008010e-16
 9300.043    4.5128530e-16
 9302.164    4.5725110e-16
 9304.285    4.4306010e-16
 9306.406    4.3214100e-16
 9308.527    4.1239530e-16
 9310.648    3.7968310e-16
 9312.769    3.6290850e-16
 9314.890    3.4333920e-16
 9317.010    3.3037770e-16
 9319.131    3.6488570e-16
 9321.252    3.8637290e-16
 9323.373    3.7971020e-16
 9325.494    3.6783110e-16
 9327.615    3.5447550e-16
 9329.736    3.4159060e-16
 9331.857    3.2950430e-16
 9333.978    3.1802000e-16
 9336.099    3.2808790e-16
 9338.219    3.6383140e-16
 9340.340    3.9608370e-16
 9342.461    4.0226250e-16
 9344.582    3.8734330e-16
 9346.703    3.7945440e-16
 9348.824    3.7761850e-16
 9350.945    3.7547010e-16
 9353.066    3.6584660e-16
 9355.187    3.4556880e-16
 9357.308    3.3844690e-16
 9359.428    3.5555760e-16
 9361.549    3.5870050e-16
 9363.670    3.5087370e-16
 9365.791    3.4649670e-16
 9367.912    3.5670320e-16
 9370.033    3.7337870e-16
 9372.154    3.8686110e-16
 9374.275    3.9349450e-16
 9376.396    4.0801730e-16
 9378.517    4.4586330e-16
 9380.637    4.6005065e-16
 9382.758    4.6714432e-16
 9384.879    4.7068276e-16
 9387.000    4.7423800e-16
 9389.121    4.7571980e-16
 9391.242    4.7422120e-16
 9393.363    4.5710630e-16
 9395.484    4.3596900e-16
 9397.605    4.1771600e-16
 9399.726    4.0330220e-16
 9401.847    3.8981230e-16
 9403.967    3.8217570e-16
 9406.088    3.9020670e-16
 9408.209    4.1021270e-16
 9410.330    3.9776640e-16
 9412.451    3.8083100e-16
 9414.572    3.8517930e-16
 9416.693    3.8580120e-16
 9418.814    3.9358340e-16
 9420.935    4.0995000e-16
 9423.056    4.1955870e-16
 9425.176    4.0699500e-16
 9427.297    3.7970010e-16
 9429.418    3.6126310e-16
 9431.539    3.6850910e-16
 9433.660    3.8802960e-16
 9435.781    4.0040870e-16
 9437.902    4.1263000e-16
 9440.023    4.0584560e-16
 9442.144    3.7039530e-16
 9444.265    3.2157120e-16
 9446.385    3.1750850e-16
 9448.506    3.3994960e-16
 9450.627    3.3534300e-16
 9452.748    3.3073640e-16
 9454.869    3.9095420e-16
 9456.990    3.9830110e-16
 9459.111    3.8928360e-16
 9461.232    3.8245700e-16
 9463.353    3.7652780e-16
 9465.474    3.4622750e-16
 9467.594    3.4874440e-16
 9469.715    3.9975430e-16
 9471.836    4.0633890e-16
 9473.957    4.0304660e-16
 9476.078    4.0140045e-16
 9478.199    4.1292350e-16
 9480.320    3.7521220e-16
 9482.441    3.3121420e-16
 9484.562    3.2208960e-16
 9486.683    3.2665190e-16
 9488.804    3.2893305e-16
 9490.924    3.1296500e-16
 9493.045    3.5529690e-16
 9495.166    3.8478990e-16
 9497.287    3.8214480e-16
 9499.408    3.7357160e-16
 9501.529    3.7119560e-16
 9503.650    3.7638130e-16
 9505.771    3.8148700e-16
 9507.892    3.8446800e-16
 9510.013    3.8187980e-16
 9512.133    3.7728340e-16
 9514.254    3.9247980e-16
 9516.375    4.2297390e-16
 9518.496    4.5147810e-16
 9520.617    4.6054600e-16
 9522.738    4.3994280e-16
 9524.859    4.0165700e-16
 9526.980    3.7647290e-16
 9529.101    3.7621750e-16
 9531.222    3.9187850e-16
 9533.342    4.0316170e-16
 9535.463    4.0640250e-16
 9537.584    4.0115250e-16
 9539.705    3.9255780e-16
 9541.826    3.9365660e-16
 9543.947    3.9424440e-16
 9546.068    3.8834030e-16
 9548.189    3.8838300e-16
 9550.310    3.9938050e-16
 9552.431    4.2051410e-16
 9554.551    4.4562160e-16
 9556.672    4.5073245e-16
 9558.793    4.4817823e-16
 9560.914    4.6720160e-16
 9563.035    4.5584330e-16
 9565.156    4.4562400e-16
 9567.277    4.2086810e-16
 9569.398    4.0507210e-16
 9571.519    3.8240900e-16
 9573.640    3.4728560e-16
 9575.761    3.5556735e-16
 9577.881    3.5646387e-16
 9580.002    3.5736040e-16
 9582.123    3.5377430e-16
 9584.244    3.9000810e-16
 9586.365    4.3261190e-16
 9588.486    4.1920400e-16
 9590.607    4.1633020e-16
 9592.728    4.1904980e-16
 9594.849    4.1634130e-16
 9596.970    4.4426020e-16
 9599.090    4.6059970e-16
